#     FILENAME=Skynet_59519_moon_63319_12123.A.raw.txt
#     BASENAME=Skynet_59519_moon_63319_12123
#      CONTROL=SKYNET
#     PROJCODE=Skynet_59519_moon_63319
#     DATAROOT=/raid/scratch/cyborg/SkynetData
#      DATADIR=/raid/scratch/cyborg
#     DATADIR2=/raid/scratch/cyborg/SkynetData/Skynet_59519_moon_63319/Cyborg
#     SCANNAME=2019_06_26_10
#     SRC_NAME=moon
#     OBSERVER=reichart_2118
#     DATE_OBS=2021-11-01T14:34:13.150
#        OBSID=63319
#      SCANNUM=12123
#          MJD=59519.6070966
#          UTC=52453
#     SCANTYPE=daisy
#     DATAMODE=LOWRES
#     RECEIVER=Rx1_2
#      OBSFREQ=1395.0000
#    LO1Tuning=7000.0000
#     RFFILTER=1355_1435
#        OBSBW=-500.0000
#     EFFBANDW=80.0000
#        NCHAN=1024
#    STARTCHAN=747
#     STOPCHAN=911
#         TINT=0.3020
#         TBIN=0.00419430
#       ACCLEN=2048 
#     DURATION=142.38
#     EXPOSURE=121.40
#        FOCUS=37.071
#       RA,DEC=12:00:04.72, 06:01:43.33
#      RA(deg)=177.04002
#     DEC(deg)=6.02199
#   WIDTH(deg)=6.0566x6.0870
#    AZIM(deg)=184.6486
#    ELEV(deg)=57.2078
#     COORDREF=RA_DEC_
#         HREF=0.0000
#         VREF=0.0000
#      RADESYS=FK5
#       OFFSYS=RADEC
#      EQUINOX=2000.00
#     IFATTENS=20.00, 4.00
#   BALANCELEV=1.200 
#   POWER_XLYR=[1.62, 2.77] 
#       VELDEF=RADI-OBS 
#     VELOCITY=0.000 
#         NPOL=2 
#      POLMODE=Linear 
#      POLTYPE=XXYY 
#      WARNING=None 
#     NOISECAL=HI 
#       PRECAL=3 
#      POSTCAL=3 
#     CRYOTEMP=19 
#      BOXTEMP=26 
#         TSYS=YY1:44.50, XX1:36.34
#         TCAL=YY1:9.92, XX1:9.15
# Raw Continuum 
#                
#UTC_Time(s)    Ra(hr)  Dec(deg)   Az(deg)   El(deg)        YY1        XX1 Cal   Sweeps 
52453.150000  12.00046    6.0286  178.6206   57.3396   307.6415   227.7589  -1    0  0 
52453.250663  11.99875    6.0284  178.6682   57.3398   294.5361   216.9146  -1    0  0 
52453.351326  12.00058    6.0216  178.6203   57.3325   295.0210   216.8927  -1    0  0 
52453.451990  12.00029    6.0187  178.6297   57.3297   294.4045   217.1865  -1    0  0 
52453.552653  12.00115    6.0280  178.6037   57.3389   294.6883   216.9225  -1    0  0 
52453.653316  12.00123    6.0291  178.6017   57.3399   294.3276   217.1986  -1    0  0 
52453.753979  12.00131    6.0301  178.5997   57.3409   294.4172   216.9886  -1    0  0 
52453.854643  12.00139    6.0312  178.5977   57.3420   294.7536   217.0579  -1    0  0 
52453.955306  12.00061    6.0284  178.6270   57.3394   294.7292   217.2033  -1    0  0 
52454.055969  12.00101    6.0270  178.6117   57.3379   294.5526   217.4657  -1    0  0 
52454.156633  12.00104    6.0268  178.6111   57.3377   294.3698   217.5598  -1    0  0 
52454.257296  12.00107    6.0266  178.6105   57.3375   294.4240   217.2208  -1    0  0 
52454.357959  12.00114    6.0278  178.6134   57.3387   294.3459   217.2750  -1    0  0 
52454.458623  12.00118    6.0280  178.6138   57.3389   294.5553   216.8261  -1    0  0 
52454.559286  12.00110    6.0258  178.6145   57.3367   294.3300   217.3483  -1    0  0 
52454.659949  12.00110    6.0252  178.6150   57.3361   294.4223   217.3747  -1    0  0 
52454.760613  12.00110    6.0272  178.6152   57.3381   294.0207   217.5565  -1    0  0 
52454.861276  12.00110    6.0275  178.6155   57.3384   294.2100   217.3106  -1    0  0 
52454.961939  12.00123    6.0268  178.6125   57.3377   294.0046   217.5221  -1    0  0 
52455.062602  12.00128    6.0267  178.6114   57.3376   293.6667   217.4433  -1    0  0 
52455.163266  12.00120    6.0269  178.6160   57.3378   293.8670   217.3505  -1    0  0 
52455.263929  12.00120    6.0269  178.6172   57.3378   293.9701   217.3309  -1    0  0 
52455.364592  12.00135    6.0294  178.6131   57.3403   293.9938   217.3299  -1    0  0 
52455.465256  12.00142    6.0306  178.6116   57.3415   293.7185   217.3216  -1    0  0 
52455.565919  12.00130    6.0285  178.6162   57.3394   293.8243   217.1378  -1    0  0 
52455.666582  12.00130    6.0284  178.6171   57.3393   293.7266   217.1529  -1    0  0 
52455.767246  12.00155    6.0291  178.6110   57.3400   293.8327   216.9435  -1    0  0 
52455.867909  12.00166    6.0294  178.6087   57.3403   293.9632   216.8887  -1    0  0 
52455.968572  12.00178    6.0297  178.6065   57.3406   293.8347   217.0548  -1    0  0 
52456.069235  12.00150    6.0284  178.6148   57.3393   293.7758   216.9366  -1    0  0 
52456.169899  12.00158    6.0278  178.6123   57.3387   293.5579   216.8598  -1    0  0 
52456.270562  12.00163    6.0274  178.6115   57.3382   293.9844   216.7064  -1    0  0 
52456.371225  12.00167    6.0270  178.6107   57.3378   293.6833   216.8469  -1    0  0 
52456.471889  12.00174    6.0292  178.6134   57.3402   293.4949   216.7523  -1    0  0 
52456.572552  12.00184    6.0274  178.6101   57.3383   293.7038   216.8534  -1    0  0 
52456.673215  12.00193    6.0266  178.6084   57.3374   293.5558   216.6416  -1    0  0 
52456.773879  12.00201    6.0257  178.6068   57.3366   293.8624   216.5906  -1    0  0 
52456.874542  12.00180    6.0276  178.6121   57.3385   293.5262   216.7414  -1    0  0 
52456.975205  12.00188    6.0278  178.6112   57.3387   293.6986   216.5997  -1    0  0 
52457.075869  12.00194    6.0279  178.6106   57.3388   293.3746   216.5006  -1    0  0 
52457.176532  12.00199    6.0280  178.6101   57.3389   293.8300   216.5462  -1    0  0 
52457.277195  12.00190    6.0278  178.6110   57.3387   293.4771   216.6794   0    0  0 
52457.377858  12.00190    6.0278  178.6110   57.3387   293.5103   216.4917   0    0  0 
52457.478522  12.00190    6.0278  178.6110   57.3387   293.2176   216.6355   0    0  0 
52457.579185  12.00210    6.0268  178.6090   57.3377   293.2767   216.6082   0    0  0 
52457.679848  12.00216    6.0265  178.6084   57.3374   293.7204   216.5265   0    0  0 
52457.780512  12.00213    6.0289  178.6100   57.3398   293.2055   216.5968   0    0  0 
52457.881175  12.00216    6.0293  178.6100   57.3401   293.5003   216.5950   0    0  0 
52457.981838  12.00225    6.0269  178.6100   57.3378   293.0342   216.4168   0    0  0 
52458.082502  12.00230    6.0264  178.6100   57.3372   293.3793   216.8636   0    0  0 
52458.183165  12.00220    6.0281  178.6100   57.3390   293.8290   217.1468   0    0  0 
52458.283828  12.00220    6.0283  178.6100   57.3392   293.0144   216.8025   0    0  0 
52458.384491  12.00220    6.0286  178.6100   57.3395   293.2044   216.4440   0    0  0 
52458.485155  12.00247    6.0275  178.6100   57.3384   293.2931   216.6139   0    0  0 
52458.585818  12.00243    6.0276  178.6100   57.3384   293.5164   216.3708   0    0  0 
52458.686481  12.00247    6.0275  178.6100   57.3384   293.3420   216.4873   0    0  0 
52458.787145  12.00251    6.0274  178.6100   57.3383   293.2269   216.5922   0    0  0 
52458.887808  12.00255    6.0276  178.6085   57.3385   293.4078   216.4939   0    0  0 
52458.988471  12.00259    6.0276  178.6081   57.3385   293.2443   216.3578   0    0  0 
52459.089135  12.00263    6.0276  178.6077   57.3385   293.4009   216.5498   0    0  0 
52459.189798  12.00250    6.0289  178.6122   57.3398   293.4520   216.8829   0    0  0 
52459.290461  12.00266    6.0282  178.6084   57.3391   293.3247   216.6916   0    0  0 
52459.391125  12.00270    6.0282  178.6080   57.3391   293.2063   216.4906   0    0  0 
52459.491788  12.00275    6.0283  178.6075   57.3391   292.9157   216.2551   0    0  0 
52459.592451  12.00260    6.0272  178.6090   57.3381   293.0666   216.0513   0    0  0 
52459.693114  12.00283    6.0286  178.6090   57.3394   292.7555   215.8919   0    0  0 
52459.793778  12.00291    6.0289  178.6090   57.3397   292.8304   216.3185   0    0  0 
52459.894441  12.00299    6.0292  178.6090   57.3401   292.6176   216.1776   0    0  0 
52459.995104  12.00285    6.0277  178.6090   57.3386   293.1545   216.1126   0    0  0 
52460.095768  12.00289    6.0276  178.6090   57.3385   292.8260   216.1374   0    0  0 
52460.196431  12.00280    6.0284  178.6090   57.3393   292.5121   216.1874   0    0  0 
52460.297094  12.00280    6.0286  178.6090   57.3394   292.8377   216.1636   0    0  0 
52460.397757  12.00295    6.0277  178.6090   57.3385   292.6904   215.8279   0    0  0 
52460.498420  12.00299    6.0275  178.6090   57.3384   292.7641   215.8639   0    0  0 
52460.599084  12.00290    6.0276  178.6090   57.3384   293.2359   216.0227   0    0  0 
52460.699747  12.00290    6.0275  178.6090   57.3384   293.4239   215.9676   0    0  0 
52460.800410  12.00306    6.0279  178.6090   57.3388   292.7906   215.8869   0    0  0 
52460.901073  12.00311    6.0280  178.6090   57.3389   292.6963   215.6081   0    0  0 
52461.001737  12.00300    6.0275  178.6090   57.3384   292.8357   215.7966   0    0  0 
52461.102400  12.00300    6.0274  178.6090   57.3383   293.1147   215.6010   0    0  0 
52461.203063  12.00300    6.0273  178.6090   57.3381   292.6588   215.8549   0    0  0 
52461.303727  12.00317    6.0280  178.6090   57.3388   292.5238   215.9829   0    0  0 
52461.404390  12.00321    6.0280  178.6090   57.3389   292.7010   215.6855   0    0  0 
52461.505053  12.00325    6.0281  178.6090   57.3390   292.7819   215.6386   0    0  0 
52461.605717  12.00329    6.0278  178.6090   57.3387   292.8780   215.6743   0    0  0 
52461.706380  12.00333    6.0273  178.6090   57.3382   292.7242   216.0080   0    0  0 
52461.807043  12.00337    6.0272  178.6090   57.3380   292.9945   215.8840   0    0  0 
52461.907707  12.00341    6.0270  178.6090   57.3379   292.9305   216.1239   0    0  0 
52462.008370  12.00330    6.0282  178.6090   57.3391   292.6745   215.7129   0    0  0 
52462.109033  12.00346    6.0272  178.6090   57.3381   292.7506   215.8510   0    0  0 
52462.209696  12.00351    6.0270  178.6090   57.3379   292.8688   215.9762   0    0  0 
52462.310360  12.00356    6.0268  178.6090   57.3376   292.4690   215.7500   0    0  0 
52462.411023  12.00356    6.0281  178.6074   57.3390   292.3535   215.6145   0    0  0 
52462.511686  12.00360    6.0282  178.6070   57.3391   292.3243   215.6233   0    0  0 
52462.612350  12.00350    6.0264  178.6108   57.3373   292.2882   215.3919   0    0  0 
52462.713013  12.00350    6.0260  178.6116   57.3369   292.4245   215.3803   0    0  0 
52462.813676  12.00367    6.0279  178.6073   57.3387   292.2779   215.4479   0    0  0 
52462.914340  12.00371    6.0280  178.6069   57.3388   292.4674   215.5918   0    0  0 
52463.015003  12.00360    6.0273  178.6095   57.3382   292.5232   215.4483   0    0  0 
52463.115666  12.00360    6.0272  178.6099   57.3381   292.4605   215.4874   0    0  0 
52463.216329  12.00360    6.0272  178.6103   57.3380   292.5602   215.1471   0    0  0 
52463.316993  12.00370    6.0274  178.6090   57.3382   292.2899   215.3843   0    0  0 
52463.618983  12.00380    6.0275  178.6090   57.3384   292.0672   215.4384   0    0  0 
52463.920973  12.00391    6.0274  178.6090   57.3383   291.9870   215.5402   0    0  0 
52464.222963  12.00400    6.0274  178.6090   57.3383   291.5790   215.2555   0    0  1 
52464.524952  12.00400    6.0274  178.6090   57.3383   291.6756   215.3374   0    0  1 
52464.826942  12.00410    6.0276  178.6090   57.3385   291.6028   215.0061   0    0  1 
52465.128932  12.00420    6.0275  178.6090   57.3383   291.1521   215.2325   0    0  1 
52465.430922  12.00432    6.0277  178.6090   57.3385   291.1546   215.0919   0    0  1 
52465.732912  12.00442    6.0276  178.6090   57.3385   291.3262   215.0840   0    0  1 
52466.034902  11.99886    6.1223  178.7605   57.4343   291.6433   214.4431   0    0  1 
52466.336892  11.98732    6.2167  179.0834   57.5304   291.2757   215.0527   0    0  1 
52466.638882  11.98167    6.2459  179.2453   57.5598   291.4107   214.9296   0    0  1 
52466.940872  11.97445    6.2971  179.4493   57.6118   291.2375   215.4092   0    0  1 
52467.242862  11.95996    6.2912  179.8544   57.6051   291.7248   215.3408   0    0  1 
52467.544852  11.95154    6.3229  180.0939   57.6361   291.4656   215.4188   0    0  1 
52467.846841  11.93648    6.3093  180.5160   57.6205   291.2818   214.9925   0    0  1 
52468.148831  11.92348    6.3116  180.8828   57.6193   291.1791   214.3847   0    0  1 
52468.450821  11.90557    6.2987  181.3835   57.5997   291.2669   214.9756   0    0  1 
52468.752811  11.89256    6.2837  181.7483   57.5796   293.8675   215.4323   0    0  1 
52469.054800  11.86823    6.2500  182.4238   57.5338   295.5018   217.2875   0    0  1 
52469.356790  11.85215    6.2105  182.8725   57.4834   333.5956   248.0832   0    0  1 
52469.658780  11.83415    6.1407  183.3680   57.3999   508.7162   372.8257   0    0  1 
52469.960770  11.81505    6.0781  183.8922   57.3209   761.8869   548.3620   0    0  1 
52470.262760  11.79767    5.9942  184.3647   57.2210   798.0381   573.3892   0    0  1 
52470.564750  11.77873    5.9203  184.8778   57.1271   566.1693   413.6921   0    0  1 
52470.866740  11.76033    5.8424  185.3765   57.0302   358.2774   265.5482   0    0  1 
52471.168730  11.74318    5.7399  185.8332   56.9047   298.2912   218.8976   0    0  1 
52471.470720  11.72752    5.6521  186.2473   56.7959   294.2993   215.2187   0    0  1 
52471.772710  11.70832    5.5303  186.7516   56.6474   292.6964   214.6922   0    0  1 
52472.074700  11.69569    5.4322  187.0747   56.5298   291.8284   213.9833   0    0  1 
52472.376690  11.68223    5.3258  187.4194   56.4026   291.0859   213.6968   0    0  1 
52472.678679  11.66634    5.2004  187.8261   56.2516   291.3128   213.7779   0    0  1 
52472.980669  11.66298    5.1560  187.9035   56.2016   291.2299   213.8233   0    0  1 
52473.282659  11.64855    5.0046  188.2625   56.0252   290.7201   213.4812   0    0  1 
52473.584649  11.63845    4.8976  188.5084   55.9006   290.3381   213.1947   0    0  1 
52473.886639  11.63374    4.7979  188.6143   55.7926   290.1066   212.6990   0    0  1 
52474.188629  11.62931    4.7220  188.7145   55.7087   290.0996   213.0223   0    0  1 
52474.490619  11.62553    4.6408  188.7995   55.6207   289.9917   212.8418   0    0  1 
52474.792609  11.62520    4.5845  188.7986   55.5639   289.8940   213.0212   0    0  1 
52475.094599  11.62271    4.5144  188.8492   55.4896   290.1030   212.7584   0    0  1 
52475.396589  11.62638    4.4917  188.7515   55.4737   290.0321   212.5653   0    0  1 
52475.698578  11.62957    4.4610  188.6599   55.4492   289.9056   212.6832   0    0  1 
52476.000568  11.63383    4.4537  188.5516   55.4496   290.1090   212.4032   0    0  1 
52476.302558  11.64085    4.4506  188.3681   55.4592   290.3773   212.4749   0    0  1 
52476.604548  11.64841    4.4843  188.1793   55.5060   290.8588   212.6781   0    0  1 
52476.906538  11.65790    4.5304  187.9414   55.5683   291.3217   212.8106   0    0  1 
52477.208528  11.66684    4.5885  187.7181   55.6413   291.6829   213.2521   0    0  1 
52477.510517  11.68000    4.6790  187.3901   55.7527   291.6160   213.2344   0    0  1 
52477.812507  11.69259    4.7651  187.0766   55.8588   291.3825   213.3020   0    0  1 
52478.114497  11.70416    4.8922  186.7944   56.0023   290.9655   213.1487   0    0  1 
52478.416487  11.71778    5.0048  186.4478   56.1348   291.8166   213.5913   0    0  1 
52478.718477  11.73168    5.1720  186.1096   56.3203   294.0299   214.8020   0    0  1 
52479.020467  11.73470    5.2092  186.0359   56.3611   294.9302   215.4611   0    0  1 
52479.322457  11.75990    5.4942  185.3991   56.6776   326.5663   237.2991   0    0  1 
52479.624447  11.77114    5.6412  185.1224   56.8373   489.3802   352.3474   0    0  1 
52479.926437  11.78764    5.8701  184.7013   57.0843   739.4048   530.3959   0    0  1 
52480.228427  11.79896    6.0178  184.4097   57.2436   803.2994   574.6639   0    0  1 
52480.530417  11.81418    6.2670  184.0190   57.5064   585.4048   419.3176   0    0  1 
52480.832406  11.82770    6.4705  183.6717   57.7226   365.6994   265.2854   0    0  1 
52481.134396  11.83757    6.6586  183.4160   57.9184   298.4434   220.1330   0    0  1 
52481.436386  11.84945    6.8800  183.1066   58.1488   293.9958   217.1833   0    0  1 
52481.738376  11.85788    7.0521  182.8825   58.3264   292.1060   215.8186   0    0  1 
52482.040366  11.87227    7.3356  182.5022   58.6195   290.7169   214.8629   0    0  1 
52482.342356  11.87915    7.5030  182.3191   58.7909   291.2115   215.0432   0    0  1 
52482.644346  11.88789    7.7205  182.0853   59.0133   291.5893   215.5830   0    0  1 
52482.946336  11.89407    7.8930  181.9192   59.1891   291.9614   215.3593   0    0  1 
52483.248325  11.89792    8.0400  181.8180   59.3380   291.5598   215.2586   0    0  1 
52483.550315  11.90190    8.1946  181.7127   59.4945   291.3151   214.9582   0    0  1 
52483.852305  11.90327    8.2588  181.6787   59.5594   291.0785   214.7400   0    0  1 
52484.154295  11.90689    8.4509  181.5870   59.7532   290.5943   214.4529   0    0  1 
52484.456285  11.90690    8.5156  181.5934   59.8179   290.9541   214.5666   0    0  1 
52484.758275  11.90567    8.5836  181.6355   59.8854   290.9190   214.8155   0    0  1 
52485.060265  11.90474    8.6386  181.6682   59.9400   291.0971   214.7087   0    0  1 
52485.362255  11.90017    8.6453  181.8103   59.9446   290.8324   214.7771   0    0  1 
52485.664244  11.89665    8.6473  181.9160   59.9449   290.7416   214.7496   0    0  1 
52485.966234  11.89461    8.6429  181.9739   59.9395   291.1888   214.6977   0    0  1 
52486.268224  11.88690    8.5726  182.2032   59.8650   290.8541   215.0412   0    0  1 
52486.570214  11.88160    8.5015  182.3598   59.7907   291.3443   214.9263   0    0  1 
52486.872204  11.87486    8.4017  182.5522   59.6868   291.1029   214.9851   0    0  1 
52487.174194  11.86747    8.2652  182.7595   59.5455   291.1762   214.6523   0    0  1 
52487.476184  11.86085    8.1284  182.9446   59.4040   290.7940   214.4254   0    0  1 
52487.778174  11.85451    7.9813  183.1143   59.2523   290.3037   214.1134   0    0  1 
52488.080164  11.84443    7.7294  183.3897   58.9925   290.3256   213.8479   0    0  1 
52488.382154  11.83767    7.5412  183.5615   58.7990   290.5939   214.4289   0    0  1 
52488.684144  11.83090    7.3412  183.7376   58.5933   291.4385   216.2450   0    0  1 
52488.986133  11.82322    7.0490  183.9233   58.2940   294.0728   217.3622   0    0  1 
52489.288123  11.81627    6.8073  184.0949   58.0462   338.1217   243.6716   0    0  1 
52489.590113  11.81041    6.5367  184.2282   57.7700   520.0902   368.6686   0    0  1 
52489.892103  11.80412    6.2772  184.3761   57.5047   764.7168   545.5915   0    0  1 
52490.194093  11.79975    6.0032  184.4622   57.2263   792.9509   566.9499   0    0  1 
52490.496083  11.79475    5.7394  184.5672   56.9576   561.1462   398.0059   0    0  1 
52490.798073  11.79060    5.4234  184.6425   56.6375   355.6802   254.7890   0    0  1 
52491.100062  11.78699    5.1942  184.7104   56.4048   295.1894   216.9054   0    0  1 
52491.402052  11.78485    4.9172  184.7366   56.1256   289.8360   213.8207   0    0  1 
52491.704042  11.78322    4.6562  184.7492   55.8631   288.9629   211.8381   0    0  1 
52492.006032  11.78199    4.4125  184.7527   55.6184   288.1218   211.2051   0    0  1 
52492.308022  11.78073    4.1669  184.7569   55.3716   287.9356   211.0379   0    0  1 
52492.610012  11.78064    3.9651  184.7365   55.1699   288.3525   211.0247   0    0  1 
52492.912002  11.78100    3.7198  184.6938   54.9254   288.1538   210.9580   0    0  1 
52493.213992  11.78210    3.5846  184.6526   54.7913   287.7490   210.9429   0    0  1 
52493.515982  11.78463    3.4138  184.5705   54.6232   287.4367   210.2811   0    0  1 
52493.817971  11.78743    3.2746  184.4814   54.4870   286.7154   210.0693   0    0  1 
52494.119961  11.78998    3.1729  184.4074   54.3879   286.6947   210.0202   0    0  1 
52494.421951  11.79252    3.0519  184.3301   54.2695   286.3486   209.9096   0    0  1 
52494.723941  11.79525    2.9946  184.2535   54.2149   286.5430   210.1255   0    0  1 
52495.025931  11.79916    2.9863  184.1554   54.2103   286.2178   209.7235   0    0  1 
