#     FILENAME=Skynet_59519_moon_63319_12123.A.cal.txt
#     BASENAME=Skynet_59519_moon_63319_12123
#      CONTROL=SKYNET
#     PROJCODE=Skynet_59519_moon_63319
#     DATAROOT=/raid/scratch/cyborg/SkynetData
#      DATADIR=/raid/scratch/cyborg
#     DATADIR2=/raid/scratch/cyborg/SkynetData/Skynet_59519_moon_63319/Cyborg
#     SCANNAME=2019_06_26_10
#     SRC_NAME=moon
#     OBSERVER=reichart_2118
#     DATE_OBS=2021-11-01T14:34:13.150
#        OBSID=63319
#      SCANNUM=12123
#          MJD=59519.6070966
#          UTC=52453
#     SCANTYPE=daisy
#     DATAMODE=LOWRES
#     RECEIVER=Rx1_2
#      OBSFREQ=1395.0000
#    LO1Tuning=7000.0000
#     RFFILTER=1355_1435
#        OBSBW=-500.0000
#     EFFBANDW=80.0000
#        NCHAN=1024
#    STARTCHAN=747
#     STOPCHAN=911
#         TINT=0.3020
#         TBIN=0.00419430
#       ACCLEN=2048 
#     DURATION=142.38
#     EXPOSURE=121.40
#        FOCUS=37.071
#       RA,DEC=12:00:04.72, 06:01:43.33
#      RA(deg)=177.04002
#     DEC(deg)=6.02199
#   WIDTH(deg)=6.0566x6.0870
#    AZIM(deg)=184.6486
#    ELEV(deg)=57.2078
#     COORDREF=RA_DEC_
#         HREF=0.0000
#         VREF=0.0000
#      RADESYS=FK5
#       OFFSYS=RADEC
#      EQUINOX=2000.00
#     IFATTENS=20.00, 4.00
#   BALANCELEV=1.200 
#   POWER_XLYR=[1.62, 2.77] 
#       VELDEF=RADI-OBS 
#     VELOCITY=0.000 
#         NPOL=2 
#      POLMODE=Linear 
#      POLTYPE=XXYY 
#      WARNING=None 
#     NOISECAL=HI 
#       PRECAL=3 
#      POSTCAL=3 
#     CRYOTEMP=19 
#      BOXTEMP=26 
#         TSYS=YY1:44.50, XX1:36.34
#         TCAL=YY1:9.92, XX1:9.15
# Calibrated Continuum 
#                
#UTC_Time(s)    Ra(hr)  Dec(deg)   Az(deg)   El(deg)        YY1        XX1 Cal   Sweeps 
52453.150000  12.00046    6.0286  178.6206   57.3396    47.9825    39.2754  -1    0  0 
52453.250663  11.99875    6.0284  178.6682   57.3398    45.9385    37.4054  -1    0  0 
52453.351326  12.00058    6.0216  178.6203   57.3325    46.0141    37.4016  -1    0  0 
52453.451990  12.00029    6.0187  178.6297   57.3297    45.9179    37.4522  -1    0  0 
52453.552653  12.00115    6.0280  178.6037   57.3389    45.9622    37.4067  -1    0  0 
52453.653316  12.00123    6.0291  178.6017   57.3399    45.9060    37.4543  -1    0  0 
52453.753979  12.00131    6.0301  178.5997   57.3409    45.9199    37.4181  -1    0  0 
52453.854643  12.00139    6.0312  178.5977   57.3420    45.9724    37.4301  -1    0  0 
52453.955306  12.00061    6.0284  178.6270   57.3394    45.9686    37.4551  -1    0  0 
52454.055969  12.00101    6.0270  178.6117   57.3379    45.9410    37.5004  -1    0  0 
52454.156633  12.00104    6.0268  178.6111   57.3377    45.9125    37.5166  -1    0  0 
52454.257296  12.00107    6.0266  178.6105   57.3375    45.9210    37.4582  -1    0  0 
52454.357959  12.00114    6.0278  178.6134   57.3387    45.9088    37.4675  -1    0  0 
52454.458623  12.00118    6.0280  178.6138   57.3389    45.9415    37.3901  -1    0  0 
52454.559286  12.00110    6.0258  178.6145   57.3367    45.9063    37.4802  -1    0  0 
52454.659949  12.00110    6.0252  178.6150   57.3361    45.9207    37.4847  -1    0  0 
52454.760613  12.00110    6.0272  178.6152   57.3381    45.8581    37.5161  -1    0  0 
52454.861276  12.00110    6.0275  178.6155   57.3384    45.8876    37.4736  -1    0  0 
52454.961939  12.00123    6.0268  178.6125   57.3377    45.8556    37.5101  -1    0  0 
52455.062602  12.00128    6.0267  178.6114   57.3376    45.8029    37.4965  -1    0  0 
52455.163266  12.00120    6.0269  178.6160   57.3378    45.8341    37.4805  -1    0  0 
52455.263929  12.00120    6.0269  178.6172   57.3378    45.8502    37.4772  -1    0  0 
52455.364592  12.00135    6.0294  178.6131   57.3403    45.8539    37.4770  -1    0  0 
52455.465256  12.00142    6.0306  178.6116   57.3415    45.8109    37.4756  -1    0  0 
52455.565919  12.00130    6.0285  178.6162   57.3394    45.8275    37.4439  -1    0  0 
52455.666582  12.00130    6.0284  178.6171   57.3393    45.8122    37.4465  -1    0  0 
52455.767246  12.00155    6.0291  178.6110   57.3400    45.8288    37.4103  -1    0  0 
52455.867909  12.00166    6.0294  178.6087   57.3403    45.8491    37.4009  -1    0  0 
52455.968572  12.00178    6.0297  178.6065   57.3406    45.8291    37.4295  -1    0  0 
52456.069235  12.00150    6.0284  178.6148   57.3393    45.8199    37.4092  -1    0  0 
52456.169899  12.00158    6.0278  178.6123   57.3387    45.7859    37.3959  -1    0  0 
52456.270562  12.00163    6.0274  178.6115   57.3382    45.8524    37.3695  -1    0  0 
52456.371225  12.00167    6.0270  178.6107   57.3378    45.8055    37.3937  -1    0  0 
52456.471889  12.00174    6.0292  178.6134   57.3402    45.7761    37.3774  -1    0  0 
52456.572552  12.00184    6.0274  178.6101   57.3383    45.8086    37.3948  -1    0  0 
52456.673215  12.00193    6.0266  178.6084   57.3374    45.7856    37.3583  -1    0  0 
52456.773879  12.00201    6.0257  178.6068   57.3366    45.8334    37.3495  -1    0  0 
52456.874542  12.00180    6.0276  178.6121   57.3385    45.7810    37.3755  -1    0  0 
52456.975205  12.00188    6.0278  178.6112   57.3387    45.8078    37.3511  -1    0  0 
52457.075869  12.00194    6.0279  178.6106   57.3388    45.7573    37.3340  -1    0  0 
52457.176532  12.00199    6.0280  178.6101   57.3389    45.8283    37.3418  -1    0  0 
52457.277195  12.00190    6.0278  178.6110   57.3387    45.7733    37.3648   0    0  0 
52457.377858  12.00190    6.0278  178.6110   57.3387    45.7785    37.3324   0    0  0 
52457.478522  12.00190    6.0278  178.6110   57.3387    45.7328    37.3572   0    0  0 
52457.579185  12.00210    6.0268  178.6090   57.3377    45.7420    37.3525   0    0  0 
52457.679848  12.00216    6.0265  178.6084   57.3374    45.8112    37.3384   0    0  0 
52457.780512  12.00213    6.0289  178.6100   57.3398    45.7309    37.3506   0    0  0 
52457.881175  12.00216    6.0293  178.6100   57.3401    45.7769    37.3503   0    0  0 
52457.981838  12.00225    6.0269  178.6100   57.3378    45.7042    37.3195   0    0  0 
52458.082502  12.00230    6.0264  178.6100   57.3372    45.7580    37.3966   0    0  0 
52458.183165  12.00220    6.0281  178.6100   57.3390    45.8282    37.4454   0    0  0 
52458.283828  12.00220    6.0283  178.6100   57.3392    45.7011    37.3860   0    0  0 
52458.384491  12.00220    6.0286  178.6100   57.3395    45.7308    37.3242   0    0  0 
52458.485155  12.00247    6.0275  178.6100   57.3384    45.7446    37.3535   0    0  0 
52458.585818  12.00243    6.0276  178.6100   57.3384    45.7794    37.3116   0    0  0 
52458.686481  12.00247    6.0275  178.6100   57.3384    45.7522    37.3317   0    0  0 
52458.787145  12.00251    6.0274  178.6100   57.3383    45.7343    37.3498   0    0  0 
52458.887808  12.00255    6.0276  178.6085   57.3385    45.7625    37.3328   0    0  0 
52458.988471  12.00259    6.0276  178.6081   57.3385    45.7370    37.3094   0    0  0 
52459.089135  12.00263    6.0276  178.6077   57.3385    45.7614    37.3425   0    0  0 
52459.189798  12.00250    6.0289  178.6122   57.3398    45.7694    37.3999   0    0  0 
52459.290461  12.00266    6.0282  178.6084   57.3391    45.7495    37.3669   0    0  0 
52459.391125  12.00270    6.0282  178.6080   57.3391    45.7311    37.3322   0    0  0 
52459.491788  12.00275    6.0283  178.6075   57.3391    45.6857    37.2916   0    0  0 
52459.592451  12.00260    6.0272  178.6090   57.3381    45.7093    37.2565   0    0  0 
52459.693114  12.00283    6.0286  178.6090   57.3394    45.6607    37.2290   0    0  0 
52459.793778  12.00291    6.0289  178.6090   57.3397    45.6724    37.3026   0    0  0 
52459.894441  12.00299    6.0292  178.6090   57.3401    45.6392    37.2783   0    0  0 
52459.995104  12.00285    6.0277  178.6090   57.3386    45.7230    37.2671   0    0  0 
52460.095768  12.00289    6.0276  178.6090   57.3385    45.6717    37.2713   0    0  0 
52460.196431  12.00280    6.0284  178.6090   57.3393    45.6228    37.2800   0    0  0 
52460.297094  12.00280    6.0286  178.6090   57.3394    45.6736    37.2759   0    0  0 
52460.397757  12.00295    6.0277  178.6090   57.3385    45.6506    37.2180   0    0  0 
52460.498420  12.00299    6.0275  178.6090   57.3384    45.6621    37.2242   0    0  0 
52460.599084  12.00290    6.0276  178.6090   57.3384    45.7357    37.2516   0    0  0 
52460.699747  12.00290    6.0275  178.6090   57.3384    45.7650    37.2421   0    0  0 
52460.800410  12.00306    6.0279  178.6090   57.3388    45.6662    37.2281   0    0  0 
52460.901073  12.00311    6.0280  178.6090   57.3389    45.6515    37.1801   0    0  0 
52461.001737  12.00300    6.0275  178.6090   57.3384    45.6733    37.2126   0    0  0 
52461.102400  12.00300    6.0274  178.6090   57.3383    45.7168    37.1788   0    0  0 
52461.203063  12.00300    6.0273  178.6090   57.3381    45.6457    37.2226   0    0  0 
52461.303727  12.00317    6.0280  178.6090   57.3388    45.6246    37.2447   0    0  0 
52461.404390  12.00321    6.0280  178.6090   57.3389    45.6522    37.1934   0    0  0 
52461.505053  12.00325    6.0281  178.6090   57.3390    45.6649    37.1853   0    0  0 
52461.605717  12.00329    6.0278  178.6090   57.3387    45.6799    37.1915   0    0  0 
52461.706380  12.00333    6.0273  178.6090   57.3382    45.6559    37.2490   0    0  0 
52461.807043  12.00337    6.0272  178.6090   57.3380    45.6980    37.2276   0    0  0 
52461.907707  12.00341    6.0270  178.6090   57.3379    45.6880    37.2690   0    0  0 
52462.008370  12.00330    6.0282  178.6090   57.3391    45.6481    37.1981   0    0  0 
52462.109033  12.00346    6.0272  178.6090   57.3381    45.6600    37.2219   0    0  0 
52462.209696  12.00351    6.0270  178.6090   57.3379    45.6784    37.2435   0    0  0 
52462.310360  12.00356    6.0268  178.6090   57.3376    45.6161    37.2045   0    0  0 
52462.411023  12.00356    6.0281  178.6074   57.3390    45.5981    37.1812   0    0  0 
52462.511686  12.00360    6.0282  178.6070   57.3391    45.5935    37.1827   0    0  0 
52462.612350  12.00350    6.0264  178.6108   57.3373    45.5879    37.1428   0    0  0 
52462.713013  12.00350    6.0260  178.6116   57.3369    45.6091    37.1408   0    0  0 
52462.813676  12.00367    6.0279  178.6073   57.3387    45.5863    37.1524   0    0  0 
52462.914340  12.00371    6.0280  178.6069   57.3388    45.6158    37.1773   0    0  0 
52463.015003  12.00360    6.0273  178.6095   57.3382    45.6245    37.1525   0    0  0 
52463.115666  12.00360    6.0272  178.6099   57.3381    45.6147    37.1593   0    0  0 
52463.216329  12.00360    6.0272  178.6103   57.3380    45.6303    37.1006   0    0  0 
52463.316993  12.00370    6.0274  178.6090   57.3382    45.5881    37.1415   0    0  0 
52463.618983  12.00380    6.0275  178.6090   57.3384    45.5534    37.1508   0    0  0 
52463.920973  12.00391    6.0274  178.6090   57.3383    45.5409    37.1684   0    0  0 
52464.222963  12.00400    6.0274  178.6090   57.3383    45.4772    37.1193   0    0  1 
52464.524952  12.00400    6.0274  178.6090   57.3383    45.4923    37.1334   0    0  1 
52464.826942  12.00410    6.0276  178.6090   57.3385    45.4810    37.0763   0    0  1 
52465.128932  12.00420    6.0275  178.6090   57.3383    45.4107    37.1153   0    0  1 
52465.430922  12.00432    6.0277  178.6090   57.3385    45.4111    37.0910   0    0  1 
52465.732912  12.00442    6.0276  178.6090   57.3385    45.4378    37.0897   0    0  1 
52466.034902  11.99886    6.1223  178.7605   57.4343    45.4873    36.9792   0    0  1 
52466.336892  11.98732    6.2167  179.0834   57.5304    45.4300    37.0843   0    0  1 
52466.638882  11.98167    6.2459  179.2453   57.5598    45.4510    37.0631   0    0  1 
52466.940872  11.97445    6.2971  179.4493   57.6118    45.4240    37.1458   0    0  1 
52467.242862  11.95996    6.2912  179.8544   57.6051    45.5000    37.1340   0    0  1 
52467.544852  11.95154    6.3229  180.0939   57.6361    45.4596    37.1474   0    0  1 
52467.846841  11.93648    6.3093  180.5160   57.6205    45.4309    37.0739   0    0  1 
52468.148831  11.92348    6.3116  180.8828   57.6193    45.4149    36.9691   0    0  1 
52468.450821  11.90557    6.2987  181.3835   57.5997    45.4286    37.0710   0    0  1 
52468.752811  11.89256    6.2837  181.7483   57.5796    45.8342    37.1497   0    0  1 
52469.054800  11.86823    6.2500  182.4238   57.5338    46.0891    37.4697   0    0  1 
52469.356790  11.85215    6.2105  182.8725   57.4834    52.0305    42.7802   0    0  1 
52469.658780  11.83415    6.1407  183.3680   57.3999    79.3439    64.2911   0    0  1 
52469.960770  11.81505    6.0781  183.8922   57.3209   118.8306    94.5611   0    0  1 
52470.262760  11.79767    5.9942  184.3647   57.2210   124.4691    98.8768   0    0  1 
52470.564750  11.77873    5.9203  184.8778   57.1271    88.3048    71.3382   0    0  1 
52470.866740  11.76033    5.8424  185.3765   57.0302    55.8801    45.7919   0    0  1 
52471.168730  11.74318    5.7399  185.8332   56.9047    46.5241    37.7473   0    0  1 
52471.470720  11.72752    5.6521  186.2473   56.7959    45.9015    37.1129   0    0  1 
52471.772710  11.70832    5.5303  186.7516   56.6474    45.6515    37.0221   0    0  1 
52472.074700  11.69569    5.4322  187.0747   56.5298    45.5161    36.8999   0    0  1 
52472.376690  11.68223    5.3258  187.4194   56.4026    45.4003    36.8505   0    0  1 
52472.678679  11.66634    5.2004  187.8261   56.2516    45.4357    36.8645   0    0  1 
52472.980669  11.66298    5.1560  187.9035   56.2016    45.4228    36.8723   0    0  1 
52473.282659  11.64855    5.0046  188.2625   56.0252    45.3433    36.8133   0    0  1 
52473.584649  11.63845    4.8976  188.5084   55.9006    45.2837    36.7639   0    0  1 
52473.886639  11.63374    4.7979  188.6143   55.7926    45.2476    36.6784   0    0  1 
52474.188629  11.62931    4.7220  188.7145   55.7087    45.2465    36.7342   0    0  1 
52474.490619  11.62553    4.6408  188.7995   55.6207    45.2297    36.7030   0    0  1 
52474.792609  11.62520    4.5845  188.7986   55.5639    45.2144    36.7340   0    0  1 
52475.094599  11.62271    4.5144  188.8492   55.4896    45.2470    36.6887   0    0  1 
52475.396589  11.62638    4.4917  188.7515   55.4737    45.2360    36.6553   0    0  1 
52475.698578  11.62957    4.4610  188.6599   55.4492    45.2163    36.6757   0    0  1 
52476.000568  11.63383    4.4537  188.5516   55.4496    45.2480    36.6274   0    0  1 
52476.302558  11.64085    4.4506  188.3681   55.4592    45.2898    36.6398   0    0  1 
52476.604548  11.64841    4.4843  188.1793   55.5060    45.3649    36.6748   0    0  1 
52476.906538  11.65790    4.5304  187.9414   55.5683    45.4371    36.6976   0    0  1 
52477.208528  11.66684    4.5885  187.7181   55.6413    45.4935    36.7738   0    0  1 
52477.510517  11.68000    4.6790  187.3901   55.7527    45.4830    36.7707   0    0  1 
52477.812507  11.69259    4.7651  187.0766   55.8588    45.4466    36.7824   0    0  1 
52478.114497  11.70416    4.8922  186.7944   56.0023    45.3816    36.7560   0    0  1 
52478.416487  11.71778    5.0048  186.4478   56.1348    45.5143    36.8323   0    0  1 
52478.718477  11.73168    5.1720  186.1096   56.3203    45.8595    37.0411   0    0  1 
52479.020467  11.73470    5.2092  186.0359   56.3611    45.9999    37.1547   0    0  1 
52479.322457  11.75990    5.4942  185.3991   56.6776    50.9342    40.9205   0    0  1 
52479.624447  11.77114    5.6412  185.1224   56.8373    76.3281    60.7598   0    0  1 
52479.926437  11.78764    5.8701  184.7013   57.0843   115.3241    91.4630   0    0  1 
52480.228427  11.79896    6.0178  184.4097   57.2436   125.2897    99.0967   0    0  1 
52480.530417  11.81418    6.2670  184.0190   57.5064    91.3049    72.3083   0    0  1 
52480.832406  11.82770    6.4705  183.6717   57.7226    57.0377    45.7465   0    0  1 
52481.134396  11.83757    6.6586  183.4160   57.9184    46.5479    37.9603   0    0  1 
52481.436386  11.84945    6.8800  183.1066   58.1488    45.8542    37.4517   0    0  1 
52481.738376  11.85788    7.0521  182.8825   58.3264    45.5595    37.2164   0    0  1 
52482.040366  11.87227    7.3356  182.5022   58.6195    45.3428    37.0516   0    0  1 
52482.342356  11.87915    7.5030  182.3191   58.7909    45.4199    37.0827   0    0  1 
52482.644346  11.88789    7.7205  182.0853   59.0133    45.4789    37.1757   0    0  1 
52482.946336  11.89407    7.8930  181.9192   59.1891    45.5369    37.1372   0    0  1 
52483.248325  11.89792    8.0400  181.8180   59.3380    45.4743    37.1198   0    0  1 
52483.550315  11.90190    8.1946  181.7127   59.4945    45.4361    37.0680   0    0  1 
52483.852305  11.90327    8.2588  181.6787   59.5594    45.3992    37.0304   0    0  1 
52484.154295  11.90689    8.4509  181.5870   59.7532    45.3237    36.9809   0    0  1 
52484.456285  11.90690    8.5156  181.5934   59.8179    45.3798    37.0005   0    0  1 
52484.758275  11.90567    8.5836  181.6355   59.8854    45.3743    37.0434   0    0  1 
52485.060265  11.90474    8.6386  181.6682   59.9400    45.4021    37.0250   0    0  1 
52485.362255  11.90017    8.6453  181.8103   59.9446    45.3608    37.0368   0    0  1 
52485.664244  11.89665    8.6473  181.9160   59.9449    45.3466    37.0320   0    0  1 
52485.966234  11.89461    8.6429  181.9739   59.9395    45.4164    37.0231   0    0  1 
52486.268224  11.88690    8.5726  182.2032   59.8650    45.3642    37.0823   0    0  1 
52486.570214  11.88160    8.5015  182.3598   59.7907    45.4406    37.0625   0    0  1 
52486.872204  11.87486    8.4017  182.5522   59.6868    45.4030    37.0726   0    0  1 
52487.174194  11.86747    8.2652  182.7595   59.5455    45.4144    37.0152   0    0  1 
52487.476184  11.86085    8.1284  182.9446   59.4040    45.3548    36.9761   0    0  1 
52487.778174  11.85451    7.9813  183.1143   59.2523    45.2784    36.9223   0    0  1 
52488.080164  11.84443    7.7294  183.3897   58.9925    45.2818    36.8765   0    0  1 
52488.382154  11.83767    7.5412  183.5615   58.7990    45.3236    36.9767   0    0  1 
52488.684144  11.83090    7.3412  183.7376   58.5933    45.4553    37.2899   0    0  1 
52488.986133  11.82322    7.0490  183.9233   58.2940    45.8662    37.4825   0    0  1 
52489.288123  11.81627    6.8073  184.0949   58.0462    52.7365    42.0194   0    0  1 
52489.590113  11.81041    6.5367  184.2282   57.7700    81.1179    63.5742   0    0  1 
52489.892103  11.80412    6.2772  184.3761   57.5047   119.2720    94.0833   0    0  1 
52490.194093  11.79975    6.0032  184.4622   57.2263   123.6757    97.7664   0    0  1 
52490.496083  11.79475    5.7394  184.5672   56.9576    87.5213    68.6333   0    0  1 
52490.798073  11.79060    5.4234  184.6425   56.6375    55.4750    43.9365   0    0  1 
52491.100062  11.78699    5.1942  184.7104   56.4048    46.0404    37.4038   0    0  1 
52491.402052  11.78485    4.9172  184.7366   56.1256    45.2054    36.8718   0    0  1 
52491.704042  11.78322    4.6562  184.7492   55.8631    45.0692    36.5300   0    0  1 
52492.006032  11.78199    4.4125  184.7527   55.6184    44.9380    36.4208   0    0  1 
52492.308022  11.78073    4.1669  184.7569   55.3716    44.9090    36.3920   0    0  1 
52492.610012  11.78064    3.9651  184.7365   55.1699    44.9740    36.3897   0    0  1 
52492.912002  11.78100    3.7198  184.6938   54.9254    44.9430    36.3782   0    0  1 
52493.213992  11.78210    3.5846  184.6526   54.7913    44.8799    36.3756   0    0  1 
52493.515982  11.78463    3.4138  184.5705   54.6232    44.8312    36.2615   0    0  1 
52493.817971  11.78743    3.2746  184.4814   54.4870    44.7187    36.2249   0    0  1 
52494.119961  11.78998    3.1729  184.4074   54.3879    44.7155    36.2165   0    0  1 
52494.421951  11.79252    3.0519  184.3301   54.2695    44.6615    36.1974   0    0  1 
52494.723941  11.79525    2.9946  184.2535   54.2149    44.6918    36.2346   0    0  1 
52495.025931  11.79916    2.9863  184.1554   54.2103    44.6411    36.1653   0    0  1 
