#     FILENAME=Skynet_59007_gl56_45085_54669.A.spect.cal.txt
#     BASENAME=Skynet_59007_gl56_45085_54669
#      CONTROL=SKYNET
#     PROJCODE=Skynet_59007_gl56_45085
#     DATAROOT=/raid/scratch/cyborg/SkynetData
#      DATADIR=/raid/scratch/cyborg
#     DATADIR2=/raid/scratch/cyborg/SkynetData/Skynet_59007_gl56_45085/Cyborg
#     SCANNAME=2018_05_24_20
#     SRC_NAME=gl56
#     OBSERVER=reichart_2118
#     DATE_OBS=2020-06-07T04:31:49.510
#        OBSID=45085
#      SCANNUM=54669
#          MJD=59007.1887675
#          UTC=16310
#     SCANTYPE=track
#     DATAMODE=HIRES
#     RECEIVER=Rx1_2
#      OBSFREQ=1395.0000
# Actual_FREQ1=1421.8800,
# Actual_FREQ2=1406.2550
#    LO1Tuning=6856.2600
#     RFFILTER=1355_1435
#        OBSBW=-15.6250
#     EFFBANDW=15.6250
#        NCHAN=1024
#    STARTCHAN=51
#     STOPCHAN=972
#         TINT=0.3000
#         TBIN=0.00013107
#       ACCLEN=2048 
#     DURATION=17.40
#     EXPOSURE=2.10
#        FOCUS=37.071
#       RA,DEC=19:35:39.65, 20:24:31.91
#      RA(deg)=293.83975
#     DEC(deg)=20.41015
#   WIDTH(deg)=0.0084x0.0024
#    AZIM(deg)=97.5630
#    ELEV(deg)=43.5089
#     COORDREF=LNG_LAT
#         HREF=56.0000
#         VREF=0.0000
#      RADESYS=FK5
#       OFFSYS=RADEC
#      EQUINOX=2000.00
#     IFATTENS=21.00, 5.00
#   BALANCELEV=1.200 
#   POWER_XLYR=[1.24, 1.25] 
#       VELDEF=RADI-OBS 
#     VELOCITY=0.000 
#         NPOL=2 
#      POLMODE=Linear 
#      POLTYPE=XXYY 
#      WARNING=None 
#     NOISECAL=HI 
#       PRECAL=2 
#      POSTCAL=2 
#     CRYOTEMP=15 
#      BOXTEMP=33 
#         TSYS=XX1:40.62, YY1:39.79
#         TSYS=XX2:37.04, YY2:43.96
#         TCAL=XX1:9.17, YY1:10.07
#         TCAL=XX2:9.16, YY2:9.99
# Calibrated spectra 
#                
#                
#Freq1(MHz)         XX1          YY1   Freq2(MHz)       XX2         YY2 
   1428.91430      20.4985      24.9173    1413.28930      20.8464      32.3168
   1428.89904      20.4324      25.3161    1413.27404      20.9496      32.3251
   1428.88378      20.5653      25.4742    1413.25878      21.1028      32.5303
   1428.86853      20.8481      25.3031    1413.24353      21.4329      32.5514
   1428.85327      20.7239      25.6916    1413.22827      21.5751      32.7770
   1428.83801      20.7364      25.6816    1413.21301      21.5674      32.8391
   1428.82275      20.6883      25.6902    1413.19775      21.6095      33.0877
   1428.80749      20.8502      25.9680    1413.18249      21.7515      33.4035
   1428.79223      20.8339      26.1042    1413.16723      21.8697      33.0949
   1428.77697      21.2414      26.2903    1413.15197      22.0632      33.6995
   1428.76171      21.2640      26.5353    1413.13671      22.0420      34.0088
   1428.74646      21.4836      26.9172    1413.12146      22.1810      34.4876
   1428.73120      21.3588      26.6590    1413.10620      22.1486      34.3818
   1428.71594      21.4753      26.9679    1413.09094      22.5145      34.4312
   1428.70068      21.6259      27.2504    1413.07568      22.5013      34.3972
   1428.68542      21.5533      27.1698    1413.06042      22.6643      34.8508
   1428.67016      22.0885      27.2345    1413.04516      22.6120      34.4301
   1428.65490      21.8212      27.6371    1413.02990      22.5501      35.0220
   1428.63964      22.1871      27.8113    1413.01464      22.9878      35.0149
   1428.62438      22.1340      27.9155    1412.99938      23.1731      35.4524
   1428.60913      22.3417      28.0773    1412.98413      22.9964      35.8751
   1428.59387      22.4386      28.2884    1412.96887      23.4521      35.5679
   1428.57861      22.4560      28.4062    1412.95361      23.3963      35.5705
   1428.56335      22.5212      28.5952    1412.93835      23.5883      36.1235
   1428.54809      22.8732      29.0358    1412.92309      23.7121      36.1268
   1428.53283      22.8310      28.8684    1412.90783      23.7020      36.4185
   1428.51757      22.9530      29.0350    1412.89257      23.6048      36.2691
   1428.50231      23.0141      29.3878    1412.87731      24.2585      36.6280
   1428.48706      23.1261      29.7368    1412.86206      24.0920      36.9623
   1428.47180      23.3620      30.1748    1412.84680      24.0930      37.5598
   1428.45654      23.5506      30.0591    1412.83154      24.4593      37.2511
   1428.44128      23.3846      30.3215    1412.81628      24.4723      37.2445
   1428.42602      23.5951      30.6185    1412.80102      24.6244      37.7500
   1428.41076      23.7200      30.8283    1412.78576      24.7024      38.2300
   1428.39550      23.8726      30.8794    1412.77050      24.8608      38.0727
   1428.38024      23.8849      31.2391    1412.75524      25.1086      38.3312
   1428.36499      24.0377      31.5846    1412.73999      25.2274      38.5057
   1428.34973      24.0118      31.4814    1412.72473      25.2194      38.9094
   1428.33447      24.4046      31.8825    1412.70947      25.5767      38.9738
   1428.31921      24.3099      32.0753    1412.69421      25.3113      38.9564
   1428.30395      24.7579      32.4177    1412.67895      25.1278      38.9612
   1428.28869      24.9686      32.6202    1412.66369      26.0777      39.3952
   1428.27343      24.8142      32.0309    1412.64843      25.8107      40.2830
   1428.25817      25.0811      33.1350    1412.63317      25.7908      39.7712
   1428.24292      24.9312      33.1032    1412.61792      26.1253      39.7040
   1428.22766      25.3735      33.2398    1412.60266      26.2546      40.0938
   1428.21240      25.3071      33.4366    1412.58740      26.2231      40.0524
   1428.19714      25.1073      33.3195    1412.57214      26.2094      40.6742
   1428.18188      25.6601      33.4943    1412.55688      26.4740      40.6761
   1428.16662      25.8831      34.3862    1412.54162      26.5324      40.6862
   1428.15136      25.8517      34.3634    1412.52636      26.5001      40.7860
   1428.13610      26.0907      34.6278    1412.51110      26.7494      41.5076
   1428.12084      26.0230      34.6737    1412.49584      26.8320      40.9476
   1428.10559      26.2172      35.0414    1412.48059      27.0933      41.3711
   1428.09033      26.3827      34.8631    1412.46533      26.9542      41.6838
   1428.07507      26.4470      35.0118    1412.45007      27.1392      42.0073
   1428.05981      26.5881      35.1166    1412.43481      27.0575      42.1157
   1428.04455      26.7435      35.6882    1412.41955      27.3177      42.3235
   1428.02929      26.8044      36.1578    1412.40429      27.7512      42.1770
   1428.01403      27.1508      36.3283    1412.38903      27.8888      42.4469
   1427.99877      26.7244      36.4585    1412.37377      27.9463      42.6910
   1427.98352      26.8035      36.2061    1412.35852      27.9332      43.2529
   1427.96826      27.5182      36.8802    1412.34326      27.8350      43.0424
   1427.95300      27.2414      36.8203    1412.32800      28.1051      43.1407
   1427.93774      27.3313      37.3212    1412.31274      28.3752      43.9432
   1427.92248      27.5449      37.1821    1412.29748      28.2662      43.6160
   1427.90722      27.5184      37.5605    1412.28222      28.6217      43.7052
   1427.89196      27.9690      37.2103    1412.26696      28.5315      43.9568
   1427.87670      28.0312      37.5843    1412.25170      28.2614      44.0100
   1427.86145      27.7992      37.9713    1412.23645      28.5291      44.3998
   1427.84619      27.9941      37.9906    1412.22119      28.7266      44.1527
   1427.83093      28.1738      38.4823    1412.20593      28.9138      44.7807
   1427.81567      28.0636      39.1265    1412.19067      28.9490      45.0924
   1427.80041      28.3609      39.0767    1412.17541      28.9574      45.0507
   1427.78515      28.4868      39.1411    1412.16015      29.0819      44.5616
   1427.76989      28.7353      39.0682    1412.14489      29.2099      44.6199
   1427.75463      28.5876      39.6347    1412.12963      29.4259      45.3197
   1427.73937      28.8431      39.9659    1412.11437      29.7251      45.4898
   1427.72412      29.0510      40.2943    1412.09912      29.2688      45.4092
   1427.70886      28.8542      39.6218    1412.08386      29.7102      45.5519
   1427.69360      28.8075      40.1028    1412.06860      29.9096      46.2143
   1427.67834      29.1324      40.2101    1412.05334      29.8415      45.6201
   1427.66308      29.2609      40.9641    1412.03808      29.8808      46.4756
   1427.64782      29.4898      40.9177    1412.02282      29.9344      45.6677
   1427.63256      29.7728      41.0272    1412.00756      30.0129      46.2870
   1427.61730      29.8938      40.8864    1411.99230      30.1575      46.4288
   1427.60205      29.5241      41.0306    1411.97705      30.2875      46.4727
   1427.58679      29.8852      41.1407    1411.96179      30.4534      46.3877
   1427.57153      29.8341      41.7304    1411.94653      30.4222      46.8725
   1427.55627      29.6123      41.7258    1411.93127      30.2040      46.8186
   1427.54101      30.3092      42.1399    1411.91601      30.6601      46.7906
   1427.52575      30.4133      42.3542    1411.90075      30.6407      47.0969
   1427.51049      30.6035      42.2358    1411.88549      30.6884      46.3918
   1427.49523      30.5056      42.0987    1411.87023      30.5850      46.9030
   1427.47998      30.4207      42.7247    1411.85498      30.7651      47.4906
   1427.46472      30.5997      42.4803    1411.83972      31.0095      47.5028
   1427.44946      30.6861      43.3979    1411.82446      31.0371      47.5169
   1427.43420      30.5667      42.8317    1411.80920      31.0075      47.5486
   1427.41894      30.9668      43.0625    1411.79394      30.9914      46.9197
   1427.40368      30.9104      43.4720    1411.77868      30.9654      48.0014
   1427.38842      31.1542      43.5574    1411.76342      31.2063      47.7639
   1427.37316      31.0087      44.0175    1411.74816      31.3010      47.8597
   1427.35791      31.2812      43.9367    1411.73291      31.2547      48.0421
   1427.34265      31.3484      43.9376    1411.71765      31.4405      47.8072
   1427.32739      31.4876      43.6407    1411.70239      31.5358      48.4601
   1427.31213      31.1502      44.4290    1411.68713      31.4481      48.2434
   1427.29687      31.6949      44.2084    1411.67187      31.6504      48.4644
   1427.28161      31.5420      44.3497    1411.65661      31.6901      47.8827
   1427.26635      31.5142      44.2549    1411.64135      31.6314      48.5807
   1427.25109      31.6487      44.6745    1411.62609      31.7504      48.4885
   1427.23583      31.8994      44.5717    1411.61083      31.5827      48.8846
   1427.22058      31.8436      44.7839    1411.59558      31.7261      48.3748
   1427.20532      31.7916      44.6509    1411.58032      32.0205      48.4859
   1427.19006      31.8942      44.9121    1411.56506      32.1016      48.5724
   1427.17480      31.6864      45.0823    1411.54980      32.2854      48.4917
   1427.15954      32.0346      44.9463    1411.53454      31.9552      48.9083
   1427.14428      32.1000      44.8058    1411.51928      31.9805      48.9517
   1427.12902      32.6698      44.9833    1411.50402      32.1891      48.3990
   1427.11376      32.3227      45.8552    1411.48876      32.3665      48.9644
   1427.09851      32.3389      45.5536    1411.47351      32.1622      48.9236
   1427.08325      32.5645      45.8948    1411.45825      32.1047      48.9212
   1427.06799      32.4179      45.8656    1411.44299      32.2598      48.3360
   1427.05273      32.2510      45.8956    1411.42773      31.9022      49.1921
   1427.03747      32.3142      46.1548    1411.41247      31.9623      49.1964
   1427.02221      32.5041      46.4877    1411.39721      32.4651      49.4185
   1427.00695      32.8272      46.1656    1411.38195      32.5328      48.6648
   1426.99169      32.9437      46.4345    1411.36669      32.5034      49.0379
   1426.97644      32.5986      45.9843    1411.35144      32.2201      49.0103
   1426.96118      32.8062      46.4680    1411.33618      32.2202      49.3853
   1426.94592      32.8833      46.3559    1411.32092      32.4528      49.5774
   1426.93066      32.9922      46.8432    1411.30566      32.4973      49.0283
   1426.91540      32.7014      46.9684    1411.29040      32.6870      49.2173
   1426.90014      33.1686      46.4552    1411.27514      32.6062      48.9261
   1426.88488      32.9907      46.6505    1411.25988      32.7633      49.2241
   1426.86962      33.0438      46.8459    1411.24462      32.5265      48.9270
   1426.85437      33.5463      47.2214    1411.22937      32.8260      49.1541
   1426.83911      32.9078      46.8558    1411.21411      32.6488      49.0311
   1426.82385      33.1559      47.2545    1411.19885      32.5702      49.1316
   1426.80859      33.2548      47.4365    1411.18359      32.8863      49.4508
   1426.79333      33.2976      47.2201    1411.16833      33.0020      49.8167
   1426.77807      33.3065      46.7487    1411.15307      33.1860      49.2667
   1426.76281      33.5494      47.1498    1411.13781      32.6412      49.2879
   1426.74755      33.5145      47.2676    1411.12255      32.8812      48.7377
   1426.73229      33.4049      47.0904    1411.10729      32.8305      49.0171
   1426.71704      33.4725      47.2798    1411.09204      33.2669      48.9498
   1426.70178      33.4789      47.2642    1411.07678      32.9957      48.9333
   1426.68652      34.0044      46.9529    1411.06152      33.2211      49.0991
   1426.67126      33.4819      46.8636    1411.04626      32.7716      49.0125
   1426.65600      33.7046      47.4981    1411.03100      32.9239      49.2129
   1426.64074      33.6323      47.3067    1411.01574      33.2670      48.5115
   1426.62548      33.7988      47.3796    1411.00048      32.9447      49.0517
   1426.61022      33.8076      47.4357    1410.98522      33.2921      48.8610
   1426.59497      33.9780      47.3566    1410.96997      33.2421      48.1377
   1426.57971      33.9569      47.3191    1410.95471      33.1969      48.5841
   1426.56445      34.0463      47.1570    1410.93945      33.1549      48.4403
   1426.54919      34.2143      47.6418    1410.92419      32.8916      49.1570
   1426.53393      33.9982      47.8169    1410.90893      33.1403      48.4932
   1426.51867      33.9156      47.6000    1410.89367      32.9317      48.3157
   1426.50341      34.0441      47.4860    1410.87841      33.0188      48.5598
   1426.48815      34.3751      47.1362    1410.86315      33.2447      48.9102
   1426.47290      34.2406      47.3408    1410.84790      33.0477      48.7217
   1426.45764      34.4909      47.6636    1410.83264      33.3170      48.4038
   1426.44238      34.2338      47.3645    1410.81738      33.0656      48.5974
   1426.42712      33.8395      47.6952    1410.80212      33.1753      48.3561
   1426.41186      34.2568      46.8971    1410.78686      32.9140      48.4530
   1426.39660      34.2945      47.1558    1410.77160      33.2897      47.8753
   1426.38134      34.4041      47.2715    1410.75634      33.2286      47.5190
   1426.36608      34.2761      47.6780    1410.74108      33.3975      47.7832
   1426.35083      34.3297      47.6243    1410.72583      33.8193      47.6596
   1426.33557      34.4845      47.1647    1410.71057      33.1335      48.2948
   1426.32031      34.4683      47.0635    1410.69531      33.3251      48.0057
   1426.30505      34.2433      47.3759    1410.68005      33.1928      47.8475
   1426.28979      34.4331      46.9352    1410.66479      33.2276      47.3705
   1426.27453      34.5826      47.1367    1410.64953      33.2584      47.5940
   1426.25927      34.4671      47.0633    1410.63427      33.6494      47.8598
   1426.24401      34.6697      47.3916    1410.61901      33.3769      47.8474
   1426.22875      34.4902      47.1291    1410.60375      33.3653      47.2863
   1426.21350      34.7493      47.4630    1410.58850      33.6835      47.8956
   1426.19824      34.6448      47.5376    1410.57324      33.4026      47.3120
   1426.18298      34.6314      47.2813    1410.55798      33.5720      47.2705
   1426.16772      34.8664      46.9271    1410.54272      33.7896      47.5046
   1426.15246      34.8357      47.2641    1410.52746      33.5115      46.8036
   1426.13720      34.5321      47.0309    1410.51220      33.4388      46.9692
   1426.12194      34.6542      47.1464    1410.49694      33.3317      47.0385
   1426.10668      34.8695      46.9210    1410.48168      33.3024      46.9222
   1426.09143      34.6280      46.8373    1410.46643      33.6158      46.8563
   1426.07617      34.7319      46.7422    1410.45117      33.2802      46.8619
   1426.06091      35.2025      47.3227    1410.43591      33.5594      46.4812
   1426.04565      34.7096      47.0512    1410.42065      33.6053      46.6426
   1426.03039      34.7283      47.0375    1410.40539      33.8190      46.8066
   1426.01513      34.8021      47.0907    1410.39013      33.8026      46.5409
   1425.99987      35.0280      46.5563    1410.37487      33.7849      46.3864
   1425.98461      35.0957      46.8528    1410.35961      33.4974      46.3352
   1425.96936      35.0450      47.0834    1410.34436      33.4196      46.2708
   1425.95410      35.2579      46.8381    1410.32910      33.3930      46.3007
   1425.93884      35.1733      46.8705    1410.31384      33.6218      45.9404
   1425.92358      35.2823      46.6473    1410.29858      33.9070      46.3049
   1425.90832      35.2517      46.5931    1410.28332      33.5755      45.9806
   1425.89306      34.8207      46.2777    1410.26806      33.6048      45.5296
   1425.87780      35.1426      46.9267    1410.25280      33.6328      45.5983
   1425.86254      35.3621      46.7690    1410.23754      33.8831      45.5633
   1425.84729      35.0152      46.4158    1410.22229      34.0464      45.7208
   1425.83203      35.2196      46.5118    1410.20703      33.6016      45.9194
   1425.81677      35.0443      46.3970    1410.19177      33.9162      45.8284
   1425.80151      35.5427      45.6779    1410.17651      33.9954      45.4829
   1425.78625      35.2847      46.7531    1410.16125      33.8497      45.6611
   1425.77099      35.5086      46.2420    1410.14599      33.9833      44.9351
   1425.75573      35.2003      45.9210    1410.13073      33.5314      45.4764
   1425.74047      35.1592      45.7518    1410.11547      33.8829      44.5187
   1425.72521      35.3820      45.5250    1410.10021      33.8201      45.1534
   1425.70996      35.6098      46.2040    1410.08496      33.8970      44.7675
   1425.69470      35.2397      46.0591    1410.06970      34.1617      45.0134
   1425.67944      35.6406      45.6951    1410.05444      34.1232      44.4845
   1425.66418      35.4945      45.8574    1410.03918      33.8504      44.3511
   1425.64892      35.8243      45.6652    1410.02392      33.9259      44.6141
   1425.63366      35.8393      45.4796    1410.00866      33.9805      44.4504
   1425.61840      35.1847      45.7627    1409.99340      34.2715      43.9379
   1425.60314      35.7316      45.4629    1409.97814      34.0215      44.2289
   1425.58789      35.4848      45.2668    1409.96289      34.3041      43.9346
   1425.57263      35.7454      45.3237    1409.94763      33.6984      44.1820
   1425.55737      35.6821      45.4055    1409.93237      33.8772      43.4842
   1425.54211      35.7020      45.1236    1409.91711      33.9963      44.2931
   1425.52685      35.7158      45.1923    1409.90185      34.0140      43.9698
   1425.51159      35.8196      45.2156    1409.88659      33.9694      43.8463
   1425.49633      35.9127      44.8464    1409.87133      34.1910      43.8257
   1425.48107      35.6908      44.7866    1409.85607      34.3591      43.7322
   1425.46582      35.7140      45.0319    1409.84082      33.8534      43.2419
