#     FILENAME=Skynet_59007_gl40_45083_54667.A.spect.cal.txt
#     BASENAME=Skynet_59007_gl40_45083_54667
#      CONTROL=SKYNET
#     PROJCODE=Skynet_59007_gl40_45083
#     DATAROOT=/raid/scratch/cyborg/SkynetData
#      DATADIR=/raid/scratch/cyborg
#     DATADIR2=/raid/scratch/cyborg/SkynetData/Skynet_59007_gl40_45083/Cyborg
#     SCANNAME=2018_05_24_20
#     SRC_NAME=gl40
#     OBSERVER=reichart_2118
#     DATE_OBS=2020-06-07T04:30:17.310
#        OBSID=45083
#      SCANNUM=54667
#          MJD=59007.1877003
#          UTC=16217
#     SCANTYPE=track
#     DATAMODE=HIRES
#     RECEIVER=Rx1_2
#      OBSFREQ=1395.0000
# Actual_FREQ1=1421.8800,
# Actual_FREQ2=1406.2550
#    LO1Tuning=6856.2600
#     RFFILTER=1355_1435
#        OBSBW=-15.6250
#     EFFBANDW=15.6250
#        NCHAN=1024
#    STARTCHAN=51
#     STOPCHAN=972
#         TINT=0.3000
#         TBIN=0.00013107
#       ACCLEN=2048 
#     DURATION=17.40
#     EXPOSURE=2.40
#        FOCUS=37.093
#       RA,DEC=19:04:39.35, 06:17:12.44
#      RA(deg)=286.08793
#     DEC(deg)=6.28611
#   WIDTH(deg)=0.0194x0.0113
#    AZIM(deg)=118.2663
#    ELEV(deg)=39.7980
#     COORDREF=LNG_LAT
#         HREF=40.0000
#         VREF=0.0000
#      RADESYS=FK5
#       OFFSYS=RADEC
#      EQUINOX=2000.00
#     IFATTENS=22.00, 6.00
#   BALANCELEV=1.200 
#   POWER_XLYR=[1.23, 1.22] 
#       VELDEF=RADI-OBS 
#     VELOCITY=0.000 
#         NPOL=2 
#      POLMODE=Linear 
#      POLTYPE=XXYY 
#      WARNING=None 
#     NOISECAL=HI 
#       PRECAL=2 
#      POSTCAL=2 
#     CRYOTEMP=15 
#      BOXTEMP=33 
#         TSYS=XX1:48.74, YY1:46.99
#         TSYS=XX2:43.53, YY2:51.73
#         TCAL=XX1:9.17, YY1:10.07
#         TCAL=XX2:9.16, YY2:9.99
# Calibrated spectra 
#                
#                
#Freq1(MHz)         XX1          YY1   Freq2(MHz)       XX2         YY2 
   1428.91430      23.8209      29.6803    1413.28930      24.8217      38.8837
   1428.89904      24.1385      29.7417    1413.27404      25.1665      39.2875
   1428.88378      24.0849      29.9574    1413.25878      24.9234      39.3924
   1428.86853      23.9177      30.0265    1413.24353      25.2090      39.0508
   1428.85327      24.1777      30.4999    1413.22827      25.4431      39.4279
   1428.83801      24.1081      30.4636    1413.21301      25.3022      39.7461
   1428.82275      24.4715      30.5954    1413.19775      25.5769      39.5432
   1428.80749      24.6420      31.2077    1413.18249      25.7415      39.9544
   1428.79223      24.3256      30.8206    1413.16723      25.7502      40.1805
   1428.77697      24.5743      30.9442    1413.15197      25.9706      40.4393
   1428.76171      24.7624      31.6156    1413.13671      26.0475      40.7264
   1428.74646      24.7943      31.2565    1413.12146      26.1211      41.1309
   1428.73120      24.9849      32.0807    1413.10620      26.3006      41.1481
   1428.71594      25.3025      31.9471    1413.09094      26.4912      41.6146
   1428.70068      25.1694      31.9778    1413.07568      26.6100      41.5222
   1428.68542      25.3972      32.2828    1413.06042      26.8321      41.9576
   1428.67016      25.3209      32.8342    1413.04516      26.9929      41.6196
   1428.65490      25.5643      32.7421    1413.02990      26.9159      41.9758
   1428.63964      25.7189      33.1622    1413.01464      27.2456      42.2334
   1428.62438      25.7318      33.1705    1412.99938      27.1624      41.9412
   1428.60913      26.0571      33.4578    1412.98413      27.4107      42.7641
   1428.59387      25.9286      33.3940    1412.96887      27.7369      42.8107
   1428.57861      26.1961      33.8955    1412.95361      27.7848      43.3066
   1428.56335      26.0941      34.1135    1412.93835      27.6103      43.3958
   1428.54809      26.3467      34.4447    1412.92309      28.1491      43.4653
   1428.53283      26.6408      34.5092    1412.90783      28.2260      43.1264
   1428.51757      26.7630      34.7042    1412.89257      28.3183      43.9021
   1428.50231      26.5653      34.8162    1412.87731      28.6286      44.4462
   1428.48706      26.9454      35.1867    1412.86206      28.7468      44.2645
   1428.47180      26.9173      35.2328    1412.84680      29.0849      44.5255
   1428.45654      26.9600      36.0566    1412.83154      28.8258      44.5031
   1428.44128      27.2206      35.8698    1412.81628      29.0986      45.0238
   1428.42602      27.2888      36.0430    1412.80102      29.1689      45.1841
   1428.41076      27.4619      36.6328    1412.78576      29.2866      45.3640
   1428.39550      27.8706      36.5412    1412.77050      29.3400      45.3245
   1428.38024      27.8027      36.8918    1412.75524      29.7602      45.5714
   1428.36499      27.7415      37.0624    1412.73999      29.7891      46.0620
   1428.34973      27.9622      37.0684    1412.72473      29.9347      46.4144
   1428.33447      27.9644      37.4647    1412.70947      29.9405      46.3297
   1428.31921      28.1637      37.8608    1412.69421      30.4293      46.5510
   1428.30395      28.1816      38.0905    1412.67895      30.5602      46.7542
   1428.28869      28.4465      38.1830    1412.66369      30.6907      47.1373
   1428.27343      28.7468      38.5173    1412.64843      30.7617      47.5161
   1428.25817      28.6702      38.6539    1412.63317      30.7162      48.0733
   1428.24292      28.8539      39.4012    1412.61792      31.1071      47.9233
   1428.22766      29.2404      39.0861    1412.60266      31.1660      47.9697
   1428.21240      29.0465      39.3882    1412.58740      31.7505      47.9984
   1428.19714      29.3386      39.7853    1412.57214      31.5392      48.4849
   1428.18188      29.6827      39.8608    1412.55688      31.3458      48.4570
   1428.16662      29.7519      40.2616    1412.54162      31.8370      48.8104
   1428.15136      29.6981      40.4587    1412.52636      32.0042      49.0328
   1428.13610      29.8365      40.6492    1412.51110      32.0570      49.0125
   1428.12084      30.2974      40.6284    1412.49584      32.0865      48.9899
   1428.10559      30.1438      41.1849    1412.48059      31.9664      49.6830
   1428.09033      30.4021      41.6076    1412.46533      32.5124      50.2463
   1428.07507      30.2013      41.6138    1412.45007      32.6611      49.7555
   1428.05981      30.9397      41.6557    1412.43481      32.6848      50.1615
   1428.04455      30.5380      42.1797    1412.41955      32.8574      50.4395
   1428.02929      30.5362      42.3244    1412.40429      33.2308      50.4860
   1428.01403      31.1397      42.4728    1412.38903      33.1093      50.7836
   1427.99877      30.8563      42.9160    1412.37377      33.0893      51.2365
   1427.98352      30.9673      43.0359    1412.35852      33.4846      51.0177
   1427.96826      31.2788      43.5689    1412.34326      33.5717      51.2978
   1427.95300      31.4201      43.5983    1412.32800      33.5128      51.2732
   1427.93774      31.6235      43.9969    1412.31274      33.7284      51.9747
   1427.92248      31.7523      44.0446    1412.29748      33.9732      52.1171
   1427.90722      32.0277      44.1908    1412.28222      34.0295      51.7780
   1427.89196      31.9721      44.3314    1412.26696      34.2667      51.9511
   1427.87670      32.4756      44.7589    1412.25170      34.4792      52.1268
   1427.86145      32.0262      45.0488    1412.23645      34.1958      52.9411
   1427.84619      32.5066      45.1271    1412.22119      34.6064      52.4119
   1427.83093      32.0208      45.1692    1412.20593      34.4772      53.1139
   1427.81567      32.7321      45.9810    1412.19067      34.5268      53.1517
   1427.80041      32.8521      45.7730    1412.17541      34.9517      53.4226
   1427.78515      32.8995      46.3130    1412.16015      35.2583      53.3477
   1427.76989      32.8776      46.4754    1412.14489      35.4623      53.6833
   1427.75463      32.8815      46.8551    1412.12963      35.0669      54.1967
   1427.73937      33.3756      47.0098    1412.11437      35.3989      53.9175
   1427.72412      33.4541      47.1546    1412.09912      35.2657      54.1043
   1427.70886      33.5546      47.2901    1412.08386      35.4854      54.5119
   1427.69360      33.5125      48.1085    1412.06860      35.4638      54.3874
   1427.67834      33.5600      47.7500    1412.05334      35.9192      54.4577
   1427.66308      33.5624      48.0741    1412.03808      35.9340      54.7560
   1427.64782      33.9226      48.1160    1412.02282      36.2026      55.4886
   1427.63256      33.9599      48.6854    1412.00756      36.1876      55.0090
   1427.61730      33.8380      49.1236    1411.99230      36.4196      55.2322
   1427.60205      33.9417      48.3286    1411.97705      36.3915      55.5986
   1427.58679      34.2173      49.2689    1411.96179      36.4258      55.4231
   1427.57153      34.2834      49.2169    1411.94653      36.5036      55.5878
   1427.55627      34.5806      49.1348    1411.93127      36.3030      55.4779
   1427.54101      34.3820      49.5665    1411.91601      36.8114      55.8098
   1427.52575      34.8170      50.0663    1411.90075      36.9144      55.5254
   1427.51049      35.0124      49.8915    1411.88549      36.4375      55.9778
   1427.49523      35.0994      49.9805    1411.87023      37.1170      56.3375
   1427.47998      35.3098      50.2367    1411.85498      37.0284      56.3546
   1427.46472      35.1976      50.4236    1411.83972      37.1613      55.6847
   1427.44946      35.2821      51.2273    1411.82446      37.1261      56.2551
   1427.43420      35.3535      50.7795    1411.80920      37.4236      56.2407
   1427.41894      35.8936      51.3343    1411.79394      37.2426      56.0570
   1427.40368      35.6177      50.8835    1411.77868      37.0697      55.9782
   1427.38842      35.5937      51.5398    1411.76342      37.6548      56.2944
   1427.37316      35.5438      51.5189    1411.74816      37.8229      56.4345
   1427.35791      35.7516      51.6034    1411.73291      37.9899      57.3133
   1427.34265      35.8996      52.5150    1411.71765      38.0352      56.1964
   1427.32739      36.5283      51.7579    1411.70239      38.2049      56.5213
   1427.31213      36.0232      52.2575    1411.68713      38.0968      57.4105
   1427.29687      36.2325      52.3450    1411.67187      38.3922      56.8353
   1427.28161      36.4673      52.2543    1411.65661      38.1933      57.0447
   1427.26635      36.4117      52.2149    1411.64135      38.0947      57.3583
   1427.25109      36.4934      52.3352    1411.62609      38.1325      57.0518
   1427.23583      36.4449      52.7144    1411.61083      38.3683      56.9790
   1427.22058      36.4009      53.0724    1411.59558      38.5411      56.8159
   1427.20532      36.6396      53.6054    1411.58032      38.3794      57.7067
   1427.19006      36.9293      52.8783    1411.56506      37.9371      57.6101
   1427.17480      36.7558      53.3765    1411.54980      38.6747      57.5973
   1427.15954      37.3198      52.8232    1411.53454      38.4978      57.5452
   1427.14428      36.8279      53.3070    1411.51928      38.7934      56.9771
   1427.12902      37.1351      53.7765    1411.50402      38.6399      58.0401
   1427.11376      37.1830      53.5239    1411.48876      38.9983      58.1842
   1427.09851      37.2329      53.7812    1411.47351      39.0646      57.8421
   1427.08325      37.4516      53.8128    1411.45825      39.1201      57.6642
   1427.06799      37.4183      54.4205    1411.44299      38.7369      57.8603
   1427.05273      37.7223      54.4211    1411.42773      38.9945      57.5285
   1427.03747      37.3491      54.2146    1411.41247      38.9701      58.0231
   1427.02221      37.6088      54.2715    1411.39721      38.8578      57.9405
   1427.00695      37.5718      54.8290    1411.38195      39.1437      57.6906
   1426.99169      37.9419      54.5394    1411.36669      39.3848      58.2283
   1426.97644      37.8804      54.0358    1411.35144      39.2089      57.8590
   1426.96118      37.9770      54.3652    1411.33618      39.6072      57.7527
   1426.94592      37.6097      54.5397    1411.32092      39.6194      57.4318
   1426.93066      37.7861      54.6349    1411.30566      39.4573      57.5512
   1426.91540      38.1319      55.0313    1411.29040      39.4504      57.6144
   1426.90014      38.3191      54.5070    1411.27514      39.5796      58.0513
   1426.88488      37.8578      55.0463    1411.25988      39.6195      58.2432
   1426.86962      38.3573      55.2335    1411.24462      39.7804      57.7448
   1426.85437      38.0990      54.9247    1411.22937      39.5769      57.9965
   1426.83911      38.6134      55.4470    1411.21411      39.6839      57.8508
   1426.82385      38.5711      55.1986    1411.19885      39.7099      58.1498
   1426.80859      38.5989      54.9914    1411.18359      39.9567      57.6403
   1426.79333      38.5200      54.9173    1411.16833      40.1150      57.5922
   1426.77807      38.9908      55.4037    1411.15307      39.6809      57.3848
   1426.76281      38.8420      55.5227    1411.13781      39.6353      57.6323
   1426.74755      38.9551      54.7470    1411.12255      40.0593      58.1970
   1426.73229      38.6548      55.6864    1411.10729      40.0562      57.1653
   1426.71704      38.9799      55.8072    1411.09204      39.9682      57.3118
   1426.70178      38.5166      55.0654    1411.07678      40.4751      57.1298
   1426.68652      38.9640      56.0266    1411.06152      40.3271      57.1589
   1426.67126      38.7673      55.2996    1411.04626      40.5149      57.6907
   1426.65600      38.9713      55.4081    1411.03100      40.2587      57.3981
   1426.64074      39.0235      55.4231    1411.01574      40.2090      57.3466
   1426.62548      38.9975      56.1535    1411.00048      40.3536      57.5119
   1426.61022      39.4421      56.0042    1410.98522      40.2917      57.7528
   1426.59497      39.1645      55.8686    1410.96997      40.4473      57.0880
   1426.57971      39.5589      55.2475    1410.95471      40.0908      57.2255
   1426.56445      39.2382      55.3995    1410.93945      40.1449      56.7169
   1426.54919      39.4368      55.1732    1410.92419      40.7559      57.4754
   1426.53393      39.7511      55.4105    1410.90893      40.0771      57.1944
   1426.51867      39.8456      55.6243    1410.89367      40.4745      56.9942
   1426.50341      39.6685      55.8056    1410.87841      40.3673      57.2122
   1426.48815      39.5566      56.2738    1410.86315      40.1955      57.5503
   1426.47290      39.5141      55.5392    1410.84790      40.2156      57.2248
   1426.45764      39.7560      55.4150    1410.83264      40.2339      57.1642
   1426.44238      39.7087      55.7960    1410.81738      40.4700      56.9410
   1426.42712      39.8349      55.3598    1410.80212      40.4910      56.3753
   1426.41186      39.8271      56.0538    1410.78686      40.6578      56.4066
   1426.39660      39.7160      55.3007    1410.77160      40.3772      56.8185
   1426.38134      40.0712      56.4707    1410.75634      40.5378      56.5240
   1426.36608      39.6080      55.4476    1410.74108      40.6550      56.1425
   1426.35083      40.1338      56.0139    1410.72583      40.6573      56.0382
   1426.33557      39.8634      55.7693    1410.71057      40.5964      56.0408
   1426.32031      40.0387      55.6346    1410.69531      40.2679      56.1882
   1426.30505      40.3059      56.0579    1410.68005      40.2165      56.0724
   1426.28979      40.2737      55.3365    1410.66479      40.3500      55.7541
   1426.27453      40.2613      55.4197    1410.64953      40.4315      56.2317
   1426.25927      40.2783      55.5965    1410.63427      40.8842      55.7899
   1426.24401      40.3083      55.1944    1410.61901      40.6677      55.0439
   1426.22875      40.3323      55.5974    1410.60375      40.2574      55.5998
   1426.21350      40.3336      55.2623    1410.58850      40.6245      55.2878
   1426.19824      40.5509      54.8377    1410.57324      40.6693      55.2995
   1426.18298      40.5709      55.8751    1410.55798      40.6022      55.5882
   1426.16772      40.5436      55.2797    1410.54272      40.7445      55.4595
   1426.15246      40.9551      55.9024    1410.52746      40.6157      55.3593
   1426.13720      40.9203      55.1875    1410.51220      40.6294      55.2998
   1426.12194      40.7119      54.3758    1410.49694      40.7092      55.2770
   1426.10668      40.6602      55.0306    1410.48168      40.7053      54.9002
   1426.09143      40.7366      54.9989    1410.46643      40.3710      54.6630
   1426.07617      40.7559      55.0705    1410.45117      40.5781      54.9843
   1426.06091      41.0217      54.8589    1410.43591      40.9411      54.7291
   1426.04565      40.6408      54.9813    1410.42065      40.8761      54.6339
   1426.03039      40.7708      54.8223    1410.40539      40.8112      54.7600
   1426.01513      41.1498      54.6239    1410.39013      40.5352      54.7188
   1425.99987      40.7499      54.4703    1410.37487      40.4111      54.3959
   1425.98461      40.9891      54.0860    1410.35961      41.1572      53.6338
   1425.96936      40.9664      54.6409    1410.34436      40.3461      54.1907
   1425.95410      41.2341      55.0339    1410.32910      41.0012      53.6278
   1425.93884      40.9995      54.3075    1410.31384      40.5693      54.0718
   1425.92358      41.3578      54.6144    1410.29858      40.9732      53.7785
   1425.90832      40.8859      54.0060    1410.28332      40.6768      53.1881
   1425.89306      41.1731      53.8281    1410.26806      40.7512      53.0768
   1425.87780      41.4626      54.5452    1410.25280      40.8038      53.7229
   1425.86254      40.9319      54.0853    1410.23754      40.7766      53.8234
   1425.84729      41.3057      53.4105    1410.22229      41.0642      53.0029
   1425.83203      41.6438      53.9457    1410.20703      40.8459      52.9875
   1425.81677      41.2612      53.3512    1410.19177      40.9103      52.5290
   1425.80151      41.3961      53.7383    1410.17651      40.8403      52.7399
   1425.78625      41.1105      53.4778    1410.16125      40.8876      52.8748
   1425.77099      41.7048      53.2047    1410.14599      41.0501      52.6554
   1425.75573      41.6071      53.8826    1410.13073      40.9838      52.8912
   1425.74047      42.1033      53.2136    1410.11547      41.3589      52.4209
   1425.72521      41.9396      53.4728    1410.10021      40.7935      52.4048
   1425.70996      41.5329      53.9009    1410.08496      41.1315      52.2630
   1425.69470      41.6191      53.6678    1410.06970      40.9105      52.5148
   1425.67944      41.6085      53.1064    1410.05444      41.5437      52.0690
   1425.66418      41.9754      53.0548    1410.03918      40.6983      52.0337
   1425.64892      41.9747      53.0466    1410.02392      40.9410      51.6570
   1425.63366      41.5777      53.1686    1410.00866      41.1490      52.1387
   1425.61840      42.5056      52.8633    1409.99340      40.9744      52.1547
   1425.60314      42.0000      53.0075    1409.97814      41.1439      51.6773
   1425.58789      42.2160      53.3728    1409.96289      41.0143      51.2472
   1425.57263      42.0844      52.7786    1409.94763      40.9672      51.7169
   1425.55737      42.0694      53.2625    1409.93237      40.9936      51.1462
   1425.54211      42.1899      52.4043    1409.91711      40.9477      51.1021
   1425.52685      42.1913      53.0269    1409.90185      40.8180      50.9939
   1425.51159      42.2486      52.1205    1409.88659      41.0257      51.4048
   1425.49633      42.0406      52.0493    1409.87133      41.2328      50.7968
   1425.48107      42.4968      51.9445    1409.85607      41.2147      50.4804
   1425.46582      42.1904      51.9969    1409.84082      40.7818      50.0911
