#     FILENAME=Skynet_59007_gl8_45079_54663.A.spect.cal.txt
#     BASENAME=Skynet_59007_gl8_45079_54663
#      CONTROL=SKYNET
#     PROJCODE=Skynet_59007_gl8_45079
#     DATAROOT=/raid/scratch/cyborg/SkynetData
#      DATADIR=/raid/scratch/cyborg
#     DATADIR2=/raid/scratch/cyborg/SkynetData/Skynet_59007_gl8_45079/Cyborg
#     SCANNAME=2018_05_24_20
#     SRC_NAME=gl8
#     OBSERVER=reichart_2118
#     DATE_OBS=2020-06-07T04:27:14.570
#        OBSID=45079
#      SCANNUM=54663
#          MJD=59007.1855853
#          UTC=16035
#     SCANTYPE=track
#     DATAMODE=HIRES
#     RECEIVER=Rx1_2
#      OBSFREQ=1395.0000
# Actual_FREQ1=1421.8800,
# Actual_FREQ2=1406.2550
#    LO1Tuning=6856.2600
#     RFFILTER=1355_1435
#        OBSBW=-15.6250
#     EFFBANDW=15.6250
#        NCHAN=1024
#    STARTCHAN=51
#     STOPCHAN=972
#         TINT=0.3000
#         TBIN=0.00013107
#       ACCLEN=2048 
#     DURATION=17.40
#     EXPOSURE=2.10
#        FOCUS=37.093
#       RA,DEC=18:03:50.38, -22:02:06.55
#      RA(deg)=270.90050
#     DEC(deg)=-22.03360
#   WIDTH(deg)=0.0056x0.0020
#    AZIM(deg)=150.8630
#    ELEV(deg)=23.8592
#     COORDREF=LNG_LAT
#         HREF=8.0000
#         VREF=0.0000
#      RADESYS=FK5
#       OFFSYS=RADEC
#      EQUINOX=2000.00
#     IFATTENS=23.00, 7.00
#   BALANCELEV=1.200 
#   POWER_XLYR=[1.15, 1.06] 
#       VELDEF=RADI-OBS 
#     VELOCITY=0.000 
#         NPOL=2 
#      POLMODE=Linear 
#      POLTYPE=XXYY 
#      WARNING=None 
#     NOISECAL=HI 
#       PRECAL=2 
#      POSTCAL=2 
#     CRYOTEMP=15 
#      BOXTEMP=33 
#         TSYS=XX1:59.26, YY1:57.14
#         TSYS=XX2:54.67, YY2:64.67
#         TCAL=XX1:9.17, YY1:10.07
#         TCAL=XX2:9.16, YY2:9.99
# Calibrated spectra 
#                
#                
#Freq1(MHz)         XX1          YY1   Freq2(MHz)       XX2         YY2 
   1428.91430      30.0829      36.1401    1413.28930      32.4772      48.8851
   1428.89904      29.7615      36.8146    1413.27404      32.2518      49.1224
   1428.88378      30.0243      36.6995    1413.25878      32.7942      48.6713
   1428.86853      30.0349      36.9551    1413.24353      32.9436      49.3544
   1428.85327      30.0073      37.0366    1413.22827      33.4013      49.1229
   1428.83801      30.1884      37.0304    1413.21301      33.6076      50.2809
   1428.82275      30.5770      37.3893    1413.19775      33.7197      50.0632
   1428.80749      30.7274      37.5399    1413.18249      33.8322      50.2067
   1428.79223      30.6328      37.7908    1413.16723      33.9120      50.1811
   1428.77697      30.7816      37.9795    1413.15197      33.9623      50.6813
   1428.76171      31.3570      37.9962    1413.13671      34.3371      50.2523
   1428.74646      31.1161      38.6838    1413.12146      34.4113      51.8881
   1428.73120      30.9419      38.4873    1413.10620      34.7442      51.9576
   1428.71594      31.4615      38.7774    1413.09094      34.8298      51.3614
   1428.70068      31.3299      39.1601    1413.07568      34.9487      51.9185
   1428.68542      31.2279      39.3335    1413.06042      35.2712      52.4211
   1428.67016      31.7524      39.6048    1413.04516      35.3676      52.5250
   1428.65490      31.7298      40.1626    1413.02990      35.8821      53.1012
   1428.63964      31.5838      39.7648    1413.01464      35.9360      53.3412
   1428.62438      32.0062      40.3375    1412.99938      36.1416      53.2293
   1428.60913      32.0698      40.1907    1412.98413      36.3755      53.5931
   1428.59387      32.4539      40.5760    1412.96887      36.4479      53.7197
   1428.57861      32.3621      41.1947    1412.95361      36.5594      53.6966
   1428.56335      32.2099      40.9818    1412.93835      36.8041      54.3497
   1428.54809      32.3586      41.4807    1412.92309      36.9911      54.2914
   1428.53283      32.8741      41.5439    1412.90783      37.0793      55.2812
   1428.51757      32.9019      41.9077    1412.89257      37.1988      54.9046
   1428.50231      33.0540      42.0138    1412.87731      37.9765      55.2576
   1428.48706      33.3449      42.5945    1412.86206      37.9878      55.9424
   1428.47180      33.7825      42.5673    1412.84680      38.1832      55.9680
   1428.45654      33.3824      42.9473    1412.83154      38.1889      56.3652
   1428.44128      33.3903      43.3007    1412.81628      38.6060      56.7414
   1428.42602      34.0619      43.8536    1412.80102      38.7227      57.0881
   1428.41076      34.2548      43.7315    1412.78576      38.7692      56.9808
   1428.39550      34.0728      44.1264    1412.77050      39.0653      57.1784
   1428.38024      34.5971      44.5739    1412.75524      39.3224      58.4277
   1428.36499      34.1369      44.6858    1412.73999      39.4561      57.9698
   1428.34973      34.9074      45.1390    1412.72473      39.9205      57.9295
   1428.33447      34.6582      45.0296    1412.70947      39.8218      58.9440
   1428.31921      35.1788      45.6437    1412.69421      40.0561      58.6556
   1428.30395      35.1136      45.7999    1412.67895      40.3508      58.8034
   1428.28869      35.1414      46.2009    1412.66369      40.4080      59.3032
   1428.27343      35.6545      46.4285    1412.64843      40.5681      58.8435
   1428.25817      35.6446      46.1704    1412.63317      40.7684      59.8041
   1428.24292      35.8390      46.9569    1412.61792      41.2078      60.0452
   1428.22766      35.9227      47.2161    1412.60266      41.3529      60.5564
   1428.21240      36.3055      47.6181    1412.58740      41.1067      60.9588
   1428.19714      36.0833      47.8183    1412.57214      41.6878      60.5555
   1428.18188      36.1648      47.7169    1412.55688      42.1732      60.4879
   1428.16662      36.7216      48.5643    1412.54162      42.3450      61.5514
   1428.15136      36.7558      48.5869    1412.52636      42.0912      61.0327
   1428.13610      37.4466      48.7046    1412.51110      42.1601      61.3129
   1428.12084      37.6285      49.1769    1412.49584      42.4499      61.7242
   1428.10559      37.2333      49.3524    1412.48059      43.0488      62.3904
   1428.09033      37.1339      49.6862    1412.46533      42.9957      63.2492
   1428.07507      37.3193      49.6342    1412.45007      42.9963      62.6307
   1428.05981      37.4865      50.9172    1412.43481      43.4655      62.6234
   1428.04455      38.1371      50.4605    1412.41955      43.5319      63.3571
   1428.02929      38.5755      51.6190    1412.40429      43.7955      63.4787
   1428.01403      38.1775      51.1617    1412.38903      43.6847      63.6075
   1427.99877      38.0295      51.3367    1412.37377      44.8552      63.7468
   1427.98352      38.5806      51.8279    1412.35852      44.5456      64.2591
   1427.96826      38.7318      51.7043    1412.34326      44.5521      64.6142
   1427.95300      38.9120      52.2071    1412.32800      43.8912      64.5994
   1427.93774      38.7487      52.7395    1412.31274      44.8460      64.6700
   1427.92248      39.3484      53.1709    1412.29748      45.1122      65.1164
   1427.90722      39.1869      53.1682    1412.28222      45.1039      65.5844
   1427.89196      39.2638      53.4782    1412.26696      45.0343      65.5584
   1427.87670      39.6440      53.5665    1412.25170      45.6429      65.1782
   1427.86145      39.8072      54.4728    1412.23645      45.8327      65.6252
   1427.84619      39.8783      53.9960    1412.22119      45.7460      66.0103
   1427.83093      40.1267      54.8215    1412.20593      46.5462      65.8654
   1427.81567      40.3366      55.5420    1412.19067      46.6412      66.1700
   1427.80041      40.6010      54.6971    1412.17541      46.7995      66.5341
   1427.78515      40.6104      55.4198    1412.16015      46.0865      66.3289
   1427.76989      40.6787      55.7905    1412.14489      46.9169      66.6723
   1427.75463      40.7674      56.1955    1412.12963      46.9491      67.2661
   1427.73937      41.2717      56.6346    1412.11437      46.8914      68.0454
   1427.72412      40.9976      56.4730    1412.09912      47.1597      67.5723
   1427.70886      41.5530      56.5524    1412.08386      47.3685      67.4352
   1427.69360      41.6455      57.2431    1412.06860      47.3610      68.3337
   1427.67834      41.4704      56.5119    1412.05334      47.4371      67.6275
   1427.66308      41.4799      56.7660    1412.03808      47.6971      68.2123
   1427.64782      42.0532      57.8212    1412.02282      48.1137      68.4278
   1427.63256      41.7954      58.0752    1412.00756      47.7618      68.3007
   1427.61730      42.1837      58.4088    1411.99230      48.1927      68.0858
   1427.60205      42.5572      58.4345    1411.97705      48.2658      68.6828
   1427.58679      42.1189      58.5040    1411.96179      48.0991      69.3289
   1427.57153      42.6736      58.6511    1411.94653      48.9323      68.6583
   1427.55627      42.9259      59.2964    1411.93127      49.2530      69.4698
   1427.54101      42.7289      58.7794    1411.91601      48.7464      69.8077
   1427.52575      43.1504      59.5107    1411.90075      48.9587      69.6609
   1427.51049      42.9188      59.6565    1411.88549      49.0076      69.8991
   1427.49523      43.1438      60.1101    1411.87023      48.8037      69.4469
   1427.47998      42.9318      60.7652    1411.85498      48.9814      69.4839
   1427.46472      43.2048      60.5398    1411.83972      49.2591      69.6323
   1427.44946      43.7444      60.3599    1411.82446      49.2290      69.4122
   1427.43420      43.4380      59.9813    1411.80920      49.6683      70.4045
   1427.41894      43.7772      61.0236    1411.79394      49.2516      70.2634
   1427.40368      43.7125      61.0109    1411.77868      50.0452      70.5071
   1427.38842      44.1641      61.2944    1411.76342      49.6977      70.6484
   1427.37316      43.8703      61.0630    1411.74816      49.7835      70.5197
   1427.35791      44.7543      61.8115    1411.73291      50.1333      70.4847
   1427.34265      44.7331      61.8976    1411.71765      50.2460      70.6685
   1427.32739      44.5007      62.2607    1411.70239      50.6044      71.0188
   1427.31213      44.5070      61.7086    1411.68713      49.8465      71.0778
   1427.29687      44.6508      61.9996    1411.67187      51.0392      70.7114
   1427.28161      45.0824      62.4563    1411.65661      50.6178      71.5101
   1427.26635      44.7963      63.3719    1411.64135      50.2597      70.9824
   1427.25109      45.2580      63.0449    1411.62609      51.0016      70.7944
   1427.23583      45.0804      62.3816    1411.61083      51.2526      71.8775
   1427.22058      45.5207      63.4566    1411.59558      51.1541      71.8077
   1427.20532      45.4409      63.2302    1411.58032      50.4031      71.4103
   1427.19006      45.6091      63.0008    1411.56506      50.8960      72.5837
   1427.17480      45.4192      63.9194    1411.54980      51.1981      71.9185
   1427.15954      45.7781      64.3293    1411.53454      51.4531      71.7319
   1427.14428      46.1446      63.9226    1411.51928      51.4866      71.4590
   1427.12902      46.0498      64.2468    1411.50402      51.8213      71.0494
   1427.11376      46.0663      64.6426    1411.48876      51.3692      71.8564
   1427.09851      45.5664      64.2730    1411.47351      51.1271      71.9182
   1427.08325      46.5191      64.2108    1411.45825      51.7150      72.1111
   1427.06799      46.2007      64.7499    1411.44299      52.0411      71.4320
   1427.05273      46.4825      64.5725    1411.42773      51.3681      71.4299
   1427.03747      47.0826      64.5808    1411.41247      52.0021      71.4895
   1427.02221      46.8166      65.2606    1411.39721      51.7136      71.6316
   1427.00695      46.3109      65.3764    1411.38195      52.1627      71.6863
   1426.99169      46.8352      65.1204    1411.36669      51.6013      71.7367
   1426.97644      46.9471      65.2437    1411.35144      51.9396      72.1021
   1426.96118      47.4362      65.7414    1411.33618      51.6272      71.5935
   1426.94592      47.3404      65.2786    1411.32092      52.5214      71.2714
   1426.93066      47.4452      65.1178    1411.30566      52.5573      71.3942
   1426.91540      47.4897      65.7660    1411.29040      52.7654      71.7499
   1426.90014      47.4249      65.5697    1411.27514      52.3275      71.4464
   1426.88488      47.6767      66.3971    1411.25988      52.0952      71.4038
   1426.86962      47.0904      65.5790    1411.24462      52.0901      71.4005
   1426.85437      48.0607      66.0300    1411.22937      52.4989      71.5058
   1426.83911      47.7241      65.6943    1411.21411      51.8162      71.4192
   1426.82385      47.8387      66.1670    1411.19885      51.8107      70.9880
   1426.80859      48.1440      66.3676    1411.18359      52.5026      71.7629
   1426.79333      48.4704      66.9216    1411.16833      52.5188      71.3932
   1426.77807      48.6372      66.3317    1411.15307      52.4003      71.0604
   1426.76281      48.4799      66.3183    1411.13781      52.6327      71.5651
   1426.74755      48.1579      66.2902    1411.12255      53.1769      71.1388
   1426.73229      48.9009      67.4400    1411.10729      52.6330      71.5328
   1426.71704      48.6462      66.6506    1411.09204      52.2138      71.1256
   1426.70178      48.7166      66.7426    1411.07678      52.5075      71.0550
   1426.68652      48.7215      66.0534    1411.06152      53.2164      71.0919
   1426.67126      48.7511      66.7692    1411.04626      52.7843      70.7868
   1426.65600      48.8103      67.3055    1411.03100      52.5217      70.7639
   1426.64074      49.0612      67.3041    1411.01574      53.1701      71.0231
   1426.62548      48.8062      67.0393    1411.00048      52.3457      71.5758
   1426.61022      49.0912      67.0292    1410.98522      52.2029      70.1439
   1426.59497      49.3844      67.4155    1410.96997      52.7690      70.5145
   1426.57971      49.1750      66.6407    1410.95471      52.4634      70.3934
   1426.56445      48.7413      67.2942    1410.93945      53.0259      70.2953
   1426.54919      49.3273      66.8322    1410.92419      53.0137      70.0765
   1426.53393      49.3532      67.2940    1410.90893      52.9046      70.5474
   1426.51867      49.4765      66.6885    1410.89367      52.7139      70.8220
   1426.50341      49.6100      66.8845    1410.87841      52.7253      70.3269
   1426.48815      49.7294      66.5373    1410.86315      52.8291      69.6872
   1426.47290      49.9661      66.8794    1410.84790      53.2601      70.2989
   1426.45764      49.6268      67.1174    1410.83264      52.7952      69.4752
   1426.44238      50.0570      67.7483    1410.81738      52.4137      70.1400
   1426.42712      49.9374      66.9344    1410.80212      52.5614      69.4802
   1426.41186      49.8792      67.4864    1410.78686      53.5409      69.7582
   1426.39660      50.2528      67.4244    1410.77160      53.3441      69.1959
   1426.38134      50.0969      66.1392    1410.75634      52.9119      69.9366
   1426.36608      50.6777      66.8366    1410.74108      52.9262      69.9146
   1426.35083      50.5475      67.8088    1410.72583      52.8703      69.5371
   1426.33557      50.7499      67.6447    1410.71057      52.4364      68.7809
   1426.32031      50.8476      67.6308    1410.69531      52.0381      68.7247
   1426.30505      50.8083      66.7625    1410.68005      52.8953      67.7467
   1426.28979      50.8166      66.8821    1410.66479      52.9094      68.6975
   1426.27453      50.7787      66.9415    1410.64953      52.6694      68.5669
   1426.25927      50.4059      66.9738    1410.63427      52.7856      69.1522
   1426.24401      51.0073      67.0862    1410.61901      52.3498      68.4822
   1426.22875      51.8903      67.1369    1410.60375      52.5696      68.7824
   1426.21350      50.9025      66.9466    1410.58850      53.2655      68.2418
   1426.19824      51.1268      66.9332    1410.57324      53.1362      67.8529
   1426.18298      50.7377      66.9946    1410.55798      52.9786      67.8124
   1426.16772      51.8949      66.6849    1410.54272      53.3812      68.1614
   1426.15246      51.0421      66.2625    1410.52746      52.6577      67.3801
   1426.13720      51.6151      67.0990    1410.51220      52.9980      67.4065
   1426.12194      51.3983      66.6202    1410.49694      52.9368      67.7339
   1426.10668      51.7971      66.9159    1410.48168      53.1251      67.6977
   1426.09143      51.6471      66.5739    1410.46643      53.3315      67.5480
   1426.07617      51.4290      65.9927    1410.45117      52.9925      67.7423
   1426.06091      52.0201      66.1953    1410.43591      53.0898      67.2833
   1426.04565      51.4134      65.9735    1410.42065      52.9565      67.6531
   1426.03039      51.7859      66.2386    1410.40539      52.9156      66.9618
   1426.01513      51.8071      66.4475    1410.39013      52.8314      66.3164
   1425.99987      52.1260      66.4338    1410.37487      53.0740      66.7448
   1425.98461      52.4319      65.6005    1410.35961      53.4470      66.8392
   1425.96936      52.2806      66.2679    1410.34436      52.8270      67.1474
   1425.95410      52.4000      65.5985    1410.32910      52.6809      66.4166
   1425.93884      51.9884      66.0559    1410.31384      52.7212      66.1838
   1425.92358      51.8079      66.0288    1410.29858      52.5316      66.4831
   1425.90832      52.0956      65.7363    1410.28332      53.3285      66.3705
   1425.89306      51.7216      65.9984    1410.26806      53.0621      65.2607
   1425.87780      52.2107      65.4591    1410.25280      52.5613      65.7450
   1425.86254      52.8107      65.6978    1410.23754      52.8441      65.7225
   1425.84729      52.5420      65.8669    1410.22229      52.2000      65.4659
   1425.83203      52.5779      64.8921    1410.20703      52.6265      65.0434
   1425.81677      52.7540      65.5097    1410.19177      52.8406      64.8560
   1425.80151      53.3843      65.4235    1410.17651      52.8501      65.5879
   1425.78625      52.5190      65.4529    1410.16125      52.7127      64.0762
   1425.77099      52.9285      65.2350    1410.14599      52.6225      65.2523
   1425.75573      53.1379      65.7378    1410.13073      52.7906      65.3310
   1425.74047      52.8545      65.6882    1410.11547      52.5598      64.6814
   1425.72521      53.0455      64.7869    1410.10021      52.6344      64.0362
   1425.70996      53.4018      64.6521    1410.08496      52.5542      64.8246
   1425.69470      53.2394      64.6372    1410.06970      52.9063      63.3976
   1425.67944      52.8897      64.9328    1410.05444      52.8859      63.7212
   1425.66418      53.0727      64.9970    1410.03918      52.6859      63.9689
   1425.64892      54.0026      64.0240    1410.02392      52.8754      63.6759
   1425.63366      53.5567      64.5500    1410.00866      53.2013      63.7244
   1425.61840      53.4694      65.3639    1409.99340      52.4349      63.4449
   1425.60314      54.0010      64.8244    1409.97814      52.8312      63.1878
   1425.58789      53.6673      64.7144    1409.96289      52.7384      63.3207
   1425.57263      54.1682      64.4853    1409.94763      52.7199      63.2043
   1425.55737      54.1292      64.3270    1409.93237      52.8184      62.9141
   1425.54211      53.9421      64.4601    1409.91711      52.5712      63.5944
   1425.52685      53.8337      63.5984    1409.90185      52.9382      62.4785
   1425.51159      53.5244      63.8288    1409.88659      52.1384      62.6253
   1425.49633      54.2307      63.6413    1409.87133      52.8285      62.3561
   1425.48107      53.6437      63.7416    1409.85607      52.9702      62.4553
   1425.46582      54.6872      63.3799    1409.84082      53.1521      62.4373
